Data from 1_mm_pl_10pc_Absorbance__0__16-34-01-151.txt Node

Date: Wed Mar 08 16:34:01 CET 2023
User: Ange
Spectrometer: FLMT08341
Trigger mode: 0
Integration Time (sec): 1.000000E-2
Scans to average: 400
Electric dark correction enabled: true
Nonlinearity correction enabled: false
Boxcar width: 3
XAxis mode: Wavelengths
Number of Pixels in Spectrum: 3648
>>>>>Begin Spectral Data<<<<<
345.271	-0.01781348
345.487	-0.02858527
345.704	-0.04276041
345.921	-0.02958295
346.137	-0.04345655
346.354	-0.02503225
346.571	-0.06076467
346.787	-0.2129388
347.004	-0.09885996
347.22	-0.16163037
347.437	-0.07688051
347.653	-0.14423394
347.87	-0.04628814
348.086	-0.0792616
348.303	-0.96011299
348.519	0.34106793
348.736	0.3593799
348.952	0.36690492
349.169	0.39092982
349.385	0.41052141
349.601	0.40942136
349.818	0.40474684
350.034	0.40316743
350.251	0.40189363
350.467	0.40839431
350.683	0.39546849
350.9	0.39638078
351.116	0.39502004
351.332	0.39110331
351.549	0.40628817
351.765	0.42267703
351.981	0.42993616
352.197	0.44863211
352.414	0.46738952
352.63	0.47958228
352.846	0.49405177
353.062	0.4837559
353.278	0.47396979
353.495	0.48874591
353.711	0.49472496
353.927	0.50021843
354.143	0.50222435
354.359	0.49879193
354.575	0.49921007
354.792	0.5118584
355.008	0.49485144
355.224	0.48427946
355.44	0.47563755
355.656	0.47140894
355.872	0.47896611
356.088	0.50664745
356.304	0.50904313
356.52	0.52057815
356.736	0.52921601
356.952	0.53653557
357.168	0.54012636
357.384	0.54578119
357.6	0.52839054
357.816	0.5397902
358.032	0.54752294
358.248	0.56433835
358.464	0.56426138
358.679	0.57904966
358.895	0.58481281
359.111	0.59694941
359.327	0.58725432
359.543	0.59683529
359.759	0.60233896
359.974	0.60656201
360.19	0.60265344
360.406	0.60233293
360.622	0.59876293
360.838	0.5985494
361.053	0.59821561
361.269	0.59695279
361.485	0.60192234
361.701	0.60752669
361.916	0.60341549
362.132	0.60836714
362.348	0.61525552
362.563	0.61896388
362.779	0.61748224
362.995	0.62338767
363.21	0.63453079
363.426	0.64006066
363.641	0.64538524
363.857	0.65339216
364.073	0.6501185
364.288	0.64861525
364.504	0.66213864
364.719	0.66248535
364.935	0.66272105
365.15	0.66443365
365.366	0.66742121
365.581	0.68030929
365.797	0.68484556
366.012	0.67496182
366.228	0.66734656
366.443	0.68659056
366.658	0.6880691
366.874	0.68100695
367.089	0.68900285
367.305	0.69790739
367.52	0.70371942
367.735	0.7101193
367.951	0.6983594
368.166	0.70698664
368.381	0.72271301
368.597	0.71647086
368.812	0.72292192
369.027	0.7287899
369.243	0.73381803
369.458	0.75766074
369.673	0.75945981
369.888	0.76003009
370.104	0.75673096
370.319	0.76053327
370.534	0.75744307
370.749	0.76336869
370.964	0.76002632
371.179	0.75757102
371.395	0.75376087
371.61	0.76453336
371.825	0.75557948
372.04	0.76292376
372.255	0.75710987
372.47	0.75015028
372.685	0.74839606
372.9	0.74594689
373.115	0.73848384
373.33	0.74586744
373.545	0.74713645
373.76	0.75840065
373.975	0.7595082
374.19	0.76200686
374.405	0.77633801
374.62	0.79358639
374.835	0.80518514
375.05	0.80740133
375.265	0.80556793
375.48	0.811893
375.695	0.83250499
375.91	0.82438003
376.125	0.81264996
376.339	0.79920552
376.554	0.80566812
376.769	0.80929093
376.984	0.8114261
377.199	0.81292847
377.414	0.81545787
377.628	0.82963204
377.843	0.84249216
378.058	0.84458403
378.273	0.85185433
378.487	0.85778301
378.702	0.86003122
378.917	0.86757149
379.131	0.86295057
379.346	0.85398612
379.561	0.85156016
379.775	0.84859975
379.99	0.84186018
380.205	0.83264653
380.419	0.82425063
380.634	0.81569523
380.848	0.83077443
381.063	0.83411758
381.278	0.84481411
381.492	0.84335946
381.707	0.85823122
381.921	0.86423161
382.136	0.88424265
382.35	0.87621247
382.565	0.87401821
382.779	0.87382407
382.994	0.88026335
383.208	0.86952447
383.422	0.88102894
383.637	0.88069266
383.851	0.89210608
384.066	0.90328551
384.28	0.90984501
384.494	0.91481141
384.709	0.92413265
384.923	0.92600856
385.137	0.91929226
385.352	0.91929049
385.566	0.92284508
385.78	0.92181008
385.995	0.91947663
386.209	0.91708445
386.423	0.92412079
386.637	0.93265267
386.852	0.92694981
387.066	0.92597969
387.28	0.92169161
387.494	0.93385495
387.708	0.94015555
387.923	0.93724556
388.137	0.9455079
388.351	0.95479897
388.565	0.96142452
388.779	0.96794129
388.993	0.98126128
389.207	0.98666736
389.421	0.99308527
389.635	0.98808128
389.85	0.98948897
390.064	0.99103336
390.278	0.99408039
390.492	0.99291762
390.706	0.99723782
390.92	1.00093623
391.134	1.01295295
391.348	1.03184325
391.561	1.03105852
391.775	1.03304172
391.989	1.0249543
392.203	1.02925471
392.417	1.03246481
392.631	1.04191139
392.845	1.03147698
393.059	1.04482042
393.273	1.04313052
393.486	1.03935058
393.7	1.03162537
393.914	1.04011211
394.128	1.03310792
394.342	1.03064907
394.555	1.01787811
394.769	1.02201214
394.983	1.03224388
395.197	1.04353805
395.41	1.0422909
395.624	1.04968734
395.838	1.0541978
396.051	1.07766856
396.265	1.07418536
396.479	1.07927646
396.692	1.0795201
396.906	1.07565688
397.12	1.07403793
397.333	1.08569936
397.547	1.07837031
397.76	1.09121806
397.974	1.09598652
398.187	1.10333122
398.401	1.11516979
398.614	1.11741583
398.828	1.11743436
399.041	1.12277017
399.255	1.12267968
399.468	1.12153266
399.682	1.12210911
399.895	1.12440283
400.109	1.12841305
400.322	1.12643791
400.536	1.11580008
400.749	1.12826409
400.962	1.13361354
401.176	1.13194039
401.389	1.1288663
401.602	1.11541228
401.816	1.12214057
402.029	1.13486155
402.242	1.12909365
402.456	1.12841181
402.669	1.12620236
402.882	1.11767463
403.095	1.13884988
403.309	1.13926549
403.522	1.14302014
403.735	1.1429223
403.948	1.14535702
404.161	1.16747018
404.375	1.18003572
404.588	1.18086844
404.801	1.18584961
405.014	1.17972502
405.227	1.19486488
405.44	1.20278106
405.653	1.20397087
405.866	1.19871795
406.079	1.19660724
406.293	1.19391401
406.506	1.19976939
406.719	1.19419842
406.932	1.19001024
407.145	1.17837321
407.358	1.19534673
407.571	1.18876793
407.784	1.19345216
407.996	1.19881386
408.209	1.19142263
408.422	1.19034122
408.635	1.19768747
408.848	1.19666624
409.061	1.19374544
409.274	1.19304521
409.487	1.18860723
409.7	1.19616824
409.912	1.20416539
410.125	1.2048055
410.338	1.20445388
410.551	1.21052776
410.764	1.21309236
410.976	1.21624817
411.189	1.21663681
411.402	1.20899809
411.615	1.21198816
411.827	1.21150569
412.04	1.21593994
412.253	1.21495258
412.465	1.21443557
412.678	1.21332305
412.891	1.22156071
413.103	1.20649093
413.316	1.20525868
413.529	1.21224068
413.741	1.21924921
413.954	1.22406759
414.166	1.22753585
414.379	1.22433293
414.591	1.23771081
414.804	1.23510452
415.016	1.22975459
415.229	1.22263846
415.441	1.21706238
415.654	1.22077325
415.866	1.22411818
416.079	1.22520729
416.291	1.22497906
416.504	1.23257088
416.716	1.23664495
416.928	1.24230796
417.141	1.23709472
417.353	1.24091876
417.566	1.2322374
417.778	1.23571786
417.99	1.2230986
418.203	1.21677466
418.415	1.21535079
418.627	1.2188726
418.839	1.21686006
419.052	1.22980921
419.264	1.22917703
419.476	1.23367102
419.688	1.23931638
419.901	1.23828096
420.113	1.2349662
420.325	1.23022209
420.537	1.22070429
420.749	1.2249006
420.961	1.22683808
421.174	1.22275986
421.386	1.21909198
421.598	1.21717616
421.81	1.2162696
422.022	1.21599059
422.234	1.21348067
422.446	1.20852993
422.658	1.20777058
422.87	1.20958349
423.082	1.20880197
423.294	1.20586667
423.506	1.20619526
423.718	1.20345364
423.93	1.19884078
424.142	1.19455768
424.354	1.18974794
424.566	1.18684828
424.778	1.1883754
424.99	1.18476582
425.202	1.17911991
425.414	1.18032356
425.625	1.1833685
425.837	1.17765468
426.049	1.18103803
426.261	1.17638742
426.473	1.17224426
426.684	1.17294646
426.896	1.17473494
427.108	1.16949851
427.32	1.1741953
427.531	1.16623955
427.743	1.1657328
427.955	1.17010043
428.167	1.16564125
428.378	1.16084918
428.59	1.15960251
428.802	1.15495818
429.013	1.1520732
429.225	1.14724229
429.436	1.14024772
429.648	1.13988743
429.86	1.13905816
430.071	1.1370002
430.283	1.13569484
430.494	1.13348639
430.706	1.13155258
430.917	1.12769731
431.129	1.12477133
431.34	1.11927578
431.552	1.11740897
431.763	1.11146139
431.975	1.11126565
432.186	1.1048926
432.398	1.10298699
432.609	1.09360648
432.821	1.09135114
433.032	1.08646513
433.243	1.08273932
433.455	1.07742675
433.666	1.07699211
433.877	1.07648682
434.089	1.07372086
434.3	1.06748158
434.511	1.05991868
434.723	1.05621247
434.934	1.0498794
435.145	1.04234184
435.356	1.03394488
435.568	1.03149807
435.779	1.02666782
435.99	1.02144059
436.201	1.01612136
436.412	1.01288064
436.624	1.0118914
436.835	1.01053389
437.046	1.00906229
437.257	1.00565175
437.468	1.00837173
437.679	1.00719544
437.89	1.00323673
438.101	1.00055718
438.312	0.99607826
438.523	0.99093062
438.734	0.98797218
438.945	0.98134162
439.156	0.97431231
439.367	0.97164306
439.578	0.96775939
439.789	0.96090537
440	0.95736248
440.211	0.95141368
440.422	0.94770729
440.633	0.94592976
440.844	0.93912446
441.055	0.93337771
441.266	0.93169124
441.477	0.92509735
441.687	0.92194562
441.898	0.91742428
442.109	0.91113425
442.32	0.90739866
442.531	0.90121025
442.741	0.89316034
442.952	0.88888791
443.163	0.88424277
443.374	0.87804884
443.584	0.87348196
443.795	0.86915106
444.006	0.86478645
444.216	0.86077858
444.427	0.85449167
444.638	0.84873596
444.848	0.84361457
445.059	0.83853787
445.27	0.83270878
445.48	0.82716791
445.691	0.82291538
445.901	0.81938146
446.112	0.81496187
446.323	0.80936512
446.533	0.80388109
446.744	0.79821084
446.954	0.79296873
447.165	0.78747779
447.375	0.78297913
447.586	0.77858781
447.796	0.77449921
448.006	0.76983989
448.217	0.76631809
448.427	0.76198743
448.638	0.75658475
448.848	0.75009328
449.058	0.7440222
449.269	0.73879318
449.479	0.7337435
449.689	0.72803422
449.9	0.72312979
450.11	0.7185282
450.32	0.71514075
450.531	0.71009127
450.741	0.70506802
450.951	0.70065144
451.161	0.69588744
451.372	0.69124044
451.582	0.68866001
451.792	0.68311792
452.002	0.67827867
452.212	0.673044
452.422	0.66817813
452.633	0.66303758
452.843	0.65874522
453.053	0.65139871
453.263	0.64711416
453.473	0.64232549
453.683	0.63846453
453.893	0.63295486
454.103	0.62934096
454.313	0.62438444
454.523	0.62018572
454.733	0.61538428
454.943	0.61171344
455.153	0.60747493
455.363	0.60338352
455.573	0.59841441
455.783	0.59416285
455.993	0.58973134
456.203	0.58593156
456.413	0.58149664
456.623	0.57668746
456.833	0.57326623
457.042	0.56910179
457.252	0.56485366
457.462	0.56027982
457.672	0.55592055
457.882	0.55170327
458.091	0.54763051
458.301	0.54283393
458.511	0.53882271
458.721	0.53465743
458.931	0.53085402
459.14	0.52708837
459.35	0.52354893
459.56	0.52004876
459.769	0.51686358
459.979	0.51276156
460.189	0.50918606
460.398	0.50542612
460.608	0.50200246
460.817	0.49814481
461.027	0.49430237
461.237	0.49035276
461.446	0.4866741
461.656	0.48344535
461.865	0.47975626
462.075	0.47614927
462.284	0.47292755
462.494	0.46925029
462.703	0.46541899
462.913	0.46229909
463.122	0.45852026
463.332	0.45521558
463.541	0.45195373
463.751	0.44842207
463.96	0.44549493
464.169	0.4424615
464.379	0.43963036
464.588	0.43659456
464.797	0.43370597
465.007	0.43060793
465.216	0.42776478
465.425	0.42483736
465.635	0.42218583
465.844	0.41910947
466.053	0.41626705
466.263	0.41344239
466.472	0.41042532
466.681	0.40743151
466.89	0.4043992
467.099	0.40129557
467.309	0.3983863
467.518	0.39569765
467.727	0.39287329
467.936	0.3901169
468.145	0.38767072
468.354	0.38533094
468.563	0.38263679
468.772	0.38014625
468.982	0.37741195
469.191	0.37515921
469.4	0.372696
469.609	0.37014834
469.818	0.36797274
470.027	0.36576711
470.236	0.36336605
470.445	0.36131642
470.654	0.35884512
470.863	0.35658157
471.072	0.35438981
471.28	0.35174466
471.489	0.34978273
471.698	0.34773879
471.907	0.3455352
472.116	0.3436573
472.325	0.34173306
472.534	0.33988876
472.743	0.33790721
472.951	0.33605384
473.16	0.33426759
473.369	0.33247565
473.578	0.33075412
473.786	0.32909744
473.995	0.32728713
474.204	0.32580878
474.413	0.32396775
474.621	0.32223134
474.83	0.320916
475.039	0.31934096
475.247	0.31771818
475.456	0.31621251
475.665	0.31473364
475.873	0.31328072
476.082	0.31167943
476.291	0.30996306
476.499	0.30850695
476.708	0.30702211
476.916	0.30556791
477.125	0.3041855
477.333	0.3028017
477.542	0.30155164
477.75	0.30029816
477.959	0.29906067
478.167	0.29792757
478.376	0.29676623
478.584	0.29552504
478.793	0.29441225
479.001	0.29330192
479.209	0.29219422
479.418	0.29109344
479.626	0.28994258
479.834	0.28877096
480.043	0.28780094
480.251	0.28675423
480.459	0.28574912
480.668	0.28494065
480.876	0.28405238
481.084	0.2832272
481.293	0.28255717
481.501	0.28164666
481.709	0.28086984
481.917	0.28008235
482.125	0.2792335
482.334	0.27848225
482.542	0.27773256
482.75	0.27686609
482.958	0.27626805
483.166	0.27562448
483.374	0.27499988
483.583	0.27449499
483.791	0.27396089
483.999	0.27332428
484.207	0.27293096
484.415	0.272445
484.623	0.27190914
484.831	0.27146055
485.039	0.27093975
485.247	0.27039997
485.455	0.27005325
485.663	0.26953624
485.871	0.2691208
486.079	0.2687085
486.287	0.26835247
486.495	0.26790213
486.702	0.26758251
486.91	0.26729242
487.118	0.26699144
487.326	0.26676256
487.534	0.26652588
487.742	0.26636783
487.95	0.26625627
488.157	0.26611998
488.365	0.26603959
488.573	0.26597739
488.781	0.26581523
488.988	0.26583924
489.196	0.26582248
489.404	0.2658099
489.612	0.26575189
489.819	0.26560897
490.027	0.26554198
490.235	0.26543787
490.442	0.26538109
490.65	0.26524639
490.857	0.26530376
491.065	0.26527823
491.273	0.26530194
491.48	0.26541101
491.688	0.26557312
491.895	0.26568406
492.103	0.26579976
492.31	0.26589874
492.518	0.26606887
492.725	0.2663291
492.933	0.26652557
493.14	0.26668117
493.348	0.26687843
493.555	0.26711055
493.763	0.26734262
493.97	0.26760578
494.177	0.26787906
494.385	0.26823911
494.592	0.26861082
494.8	0.26891472
495.007	0.26933351
495.214	0.26972424
495.422	0.27020519
495.629	0.27059406
495.836	0.27092153
496.043	0.27137348
496.251	0.27186073
496.458	0.27228257
496.665	0.27269225
496.872	0.27311313
497.08	0.2736028
497.287	0.2741109
497.494	0.27460974
497.701	0.27509422
497.908	0.27567594
498.115	0.27626274
498.322	0.27682186
498.53	0.27733148
498.737	0.27788998
498.944	0.27841444
499.151	0.27903613
499.358	0.27957339
499.565	0.28015851
499.772	0.28082216
499.979	0.28151665
500.186	0.28219506
500.393	0.28294009
500.6	0.28361251
500.807	0.28440464
501.014	0.28520611
501.221	0.28594442
501.427	0.28668962
501.634	0.2874578
501.841	0.28818427
502.048	0.28895215
502.255	0.28956404
502.462	0.29038207
502.669	0.29128699
502.875	0.29212262
503.082	0.29290302
503.289	0.29376831
503.496	0.29468147
503.702	0.29559405
503.909	0.29637421
504.116	0.29712616
504.323	0.29796867
504.529	0.29894068
504.736	0.29985372
504.943	0.30066543
505.149	0.3016295
505.356	0.30258063
505.563	0.30356051
505.769	0.30455797
505.976	0.30551103
506.182	0.30656588
506.389	0.30765716
506.595	0.30873789
506.802	0.30981106
507.008	0.31089275
507.215	0.31193935
507.421	0.3130548
507.628	0.31407388
507.834	0.31509956
508.041	0.31618211
508.247	0.31717508
508.454	0.31820027
508.66	0.31922496
508.866	0.32020561
509.073	0.32135076
509.279	0.32252112
509.486	0.32360973
509.692	0.32476641
509.898	0.32598266
510.105	0.32719216
510.311	0.32838201
510.517	0.32954768
510.723	0.33078427
510.93	0.33189812
511.136	0.33315956
511.342	0.33436636
511.548	0.33564362
511.754	0.3369787
511.961	0.33822235
512.167	0.33937569
512.373	0.34066561
512.579	0.34194023
512.785	0.34315346
512.991	0.34437357
513.197	0.34559919
513.404	0.34684668
513.61	0.34820338
513.816	0.34948057
514.022	0.35085638
514.228	0.35222754
514.434	0.3535748
514.64	0.35495105
514.846	0.35635578
515.052	0.35770766
515.258	0.35904216
515.464	0.36034387
515.669	0.36165924
515.875	0.36308505
516.081	0.36441245
516.287	0.36583312
516.493	0.36725442
516.699	0.36870487
516.905	0.37001016
517.111	0.37141699
517.316	0.37284714
517.522	0.37432058
517.728	0.37581496
517.934	0.37731363
518.139	0.37881703
518.345	0.38034605
518.551	0.38196002
518.757	0.38344536
518.962	0.38499536
519.168	0.38645451
519.374	0.38784974
519.579	0.38933919
519.785	0.39100771
519.991	0.39244741
520.196	0.39393126
520.402	0.39541596
520.607	0.39699545
520.813	0.39873815
521.018	0.40035109
521.224	0.40181332
521.429	0.40350851
521.635	0.40516623
521.84	0.40672045
522.046	0.40835258
522.251	0.40988399
522.457	0.4114805
522.662	0.41319442
522.868	0.41482569
523.073	0.41648701
523.279	0.41815445
523.484	0.41967924
523.689	0.42132977
523.895	0.42302607
524.1	0.42457801
524.305	0.42616175
524.511	0.42780764
524.716	0.42948266
524.921	0.43116817
525.126	0.43285278
525.332	0.43460736
525.537	0.43636782
525.742	0.43819161
525.947	0.43993568
526.153	0.44168776
526.358	0.44348671
526.563	0.44530899
526.768	0.44701128
526.973	0.44875666
527.178	0.45051737
527.383	0.45222233
527.588	0.45402388
527.794	0.45578928
527.999	0.45749714
528.204	0.45933265
528.409	0.461124
528.614	0.46299492
528.819	0.46487656
529.024	0.46664947
529.229	0.46842501
529.434	0.47038699
529.639	0.47219709
529.843	0.47413926
530.048	0.47592332
530.253	0.47777025
530.458	0.47966168
530.663	0.48153223
530.868	0.4833906
531.073	0.48518867
531.278	0.48697228
531.482	0.48877804
531.687	0.49066454
531.892	0.49253184
532.097	0.49438067
532.302	0.49624739
532.506	0.49812902
532.711	0.500015
532.916	0.50195878
533.12	0.50387063
533.325	0.50574649
533.53	0.50779789
533.734	0.50971668
533.939	0.51169195
534.144	0.51371829
534.348	0.5156496
534.553	0.51766756
534.757	0.5195797
534.962	0.52152792
535.167	0.52359718
535.371	0.52562615
535.576	0.5276776
535.78	0.52973096
535.985	0.53173109
536.189	0.5338303
536.394	0.53583445
536.598	0.53776038
536.803	0.53968962
537.007	0.54165743
537.211	0.54376518
537.416	0.5457634
537.62	0.54784927
537.825	0.54985569
538.029	0.55215308
538.233	0.55423459
538.438	0.55632136
538.642	0.55820473
538.846	0.56028223
539.05	0.5622289
539.255	0.5642166
539.459	0.56604714
539.663	0.56811744
539.867	0.57010573
540.072	0.5721413
540.276	0.57406859
540.48	0.57628006
540.684	0.57831827
540.888	0.58052058
541.092	0.58255583
541.297	0.58461256
541.501	0.58672671
541.705	0.58891844
541.909	0.59092259
542.113	0.59303493
542.317	0.59516205
542.521	0.59729877
542.725	0.59945605
542.929	0.60157581
543.133	0.60370607
543.337	0.60583131
543.541	0.6080259
543.745	0.60992331
543.949	0.6120989
544.153	0.61411755
544.357	0.61618483
544.56	0.61834328
544.764	0.62044694
544.968	0.62249589
545.172	0.62451938
545.376	0.62665446
545.58	0.6289089
545.783	0.63122765
545.987	0.63319022
546.191	0.63527755
546.395	0.63744089
546.598	0.63965942
546.802	0.64177689
547.006	0.64400223
547.21	0.64576085
547.413	0.64808928
547.617	0.65038246
547.821	0.65253311
548.024	0.65486705
548.228	0.65694204
548.431	0.65897919
548.635	0.66121939
548.839	0.66321771
549.042	0.66525721
549.246	0.66732906
549.449	0.66936076
549.653	0.67156771
549.856	0.67363079
550.06	0.67580164
550.263	0.67788359
550.467	0.68002094
550.67	0.68221195
550.874	0.68431904
551.077	0.68655048
551.28	0.68891537
551.484	0.6912242
551.687	0.69353668
551.891	0.69584917
552.094	0.69800237
552.297	0.70026466
552.501	0.7025479
552.704	0.70480233
552.907	0.70689466
553.11	0.70896115
553.314	0.71099456
553.517	0.71299522
553.72	0.71514132
553.923	0.71719279
554.127	0.71927008
554.33	0.72129183
554.533	0.7234616
554.736	0.72550455
554.939	0.72781556
555.142	0.72998607
555.345	0.73210485
555.549	0.73436053
555.752	0.73660651
555.955	0.73883883
556.158	0.74126376
556.361	0.74347575
556.564	0.74567679
556.767	0.74786624
556.97	0.74989065
557.173	0.75208936
557.376	0.75439909
557.579	0.75634625
557.782	0.75841498
557.984	0.76067509
558.187	0.762822
558.39	0.76495538
558.593	0.76716208
558.796	0.76912892
558.999	0.77128378
559.202	0.77344036
559.404	0.77535289
559.607	0.77753558
559.81	0.77961176
560.013	0.78161094
560.216	0.78370336
560.418	0.78601023
560.621	0.78807238
560.824	0.79033944
561.026	0.79237636
561.229	0.7944536
561.432	0.79652938
561.634	0.79864993
561.837	0.8004466
562.04	0.80262247
562.242	0.80472454
562.445	0.80671268
562.647	0.80898498
562.85	0.8110189
563.053	0.81311439
563.255	0.81537361
563.458	0.81744152
563.66	0.81955304
563.863	0.82194617
564.065	0.82408657
564.268	0.82631093
564.47	0.8284048
564.672	0.83027225
564.875	0.8324571
565.077	0.83437821
565.28	0.83611711
565.482	0.83826174
565.684	0.84022814
565.887	0.8423748
566.089	0.84462779
566.291	0.8464094
566.494	0.84846171
566.696	0.85043335
566.898	0.85236175
567.1	0.85442832
567.303	0.85634416
567.505	0.85834193
567.707	0.86021426
567.909	0.862038
568.111	0.86410467
568.314	0.86599438
568.516	0.86789016
568.718	0.86980102
568.92	0.87161488
569.122	0.87379002
569.324	0.87593638
569.526	0.87782659
569.728	0.87992753
569.93	0.88185314
570.132	0.88377406
570.334	0.88576879
570.536	0.88750531
570.738	0.88923799
570.94	0.89097096
571.142	0.89288069
571.344	0.89456281
571.546	0.89636649
571.748	0.89841617
571.95	0.90023275
572.152	0.90208114
572.354	0.90398263
572.555	0.90579323
572.757	0.90801595
572.959	0.90983266
573.161	0.91124937
573.363	0.91328594
573.564	0.9153652
573.766	0.91719437
573.968	0.91889319
574.17	0.92026656
574.371	0.92213418
574.573	0.9241274
574.775	0.92564817
574.976	0.92714888
575.178	0.92881438
575.38	0.9304584
575.581	0.93212571
575.783	0.93388456
575.985	0.93550271
576.186	0.9374557
576.388	0.93929863
576.589	0.94096445
576.791	0.94271
576.992	0.94460598
577.194	0.9462632
577.395	0.9478643
577.597	0.94931126
577.798	0.95094023
578	0.95260797
578.201	0.95410848
578.402	0.95591896
578.604	0.95733954
578.805	0.95910092
579.007	0.96072223
579.208	0.96228862
579.409	0.96400172
579.611	0.96546517
579.812	0.96703115
580.013	0.96870812
580.215	0.96985511
580.416	0.97132858
580.617	0.97273456
580.818	0.97413177
581.019	0.97570625
581.221	0.97720776
581.422	0.97867967
581.623	0.98052948
581.824	0.9819058
582.025	0.98345958
582.226	0.9849882
582.428	0.98653841
582.629	0.98788365
582.83	0.9892565
583.031	0.9906103
583.232	0.99251809
583.433	0.99405638
583.634	0.99533022
583.835	0.99658941
584.036	0.99766596
584.237	0.9988889
584.438	1.0002524
584.639	1.00113064
584.84	1.00226274
585.041	1.0035179
585.242	1.00488922
585.442	1.00637765
585.643	1.0080666
585.844	1.00918104
586.045	1.01065807
586.246	1.01180273
586.447	1.01296538
586.647	1.01387232
586.848	1.01508502
587.049	1.01593872
587.25	1.017177
587.45	1.0180774
587.651	1.01938123
587.852	1.02062002
588.053	1.02220438
588.253	1.02311571
588.454	1.02450577
588.655	1.02548594
588.855	1.02654565
589.056	1.02754112
589.256	1.02869328
589.457	1.02950362
589.658	1.03081248
589.858	1.03150917
590.059	1.03259634
590.259	1.03379418
590.46	1.03458286
590.66	1.03554196
590.861	1.03649444
591.061	1.03734692
591.262	1.03866077
591.462	1.03979859
591.662	1.04079512
591.863	1.04182755
592.063	1.04288928
592.264	1.04382091
592.464	1.04484685
592.664	1.04575984
592.865	1.04665293
593.065	1.04727686
593.265	1.04849142
593.465	1.04908362
593.666	1.04997052
593.866	1.05075979
594.066	1.05136485
594.266	1.05204638
594.467	1.05253317
594.667	1.05309299
594.867	1.05386689
595.067	1.05454563
595.267	1.05527578
595.467	1.05593538
595.668	1.05656477
595.868	1.05766923
596.068	1.05838789
596.268	1.05908313
596.468	1.05981508
596.668	1.0606772
596.868	1.06124164
597.068	1.06198978
597.268	1.0626866
597.468	1.06317192
597.668	1.0638295
597.868	1.06424696
598.068	1.0645263
598.268	1.06518703
598.467	1.06571976
598.667	1.06622761
598.867	1.06659387
599.067	1.06727547
599.267	1.06789428
599.467	1.06826932
599.667	1.06853365
599.866	1.06911072
600.066	1.06953522
600.266	1.06991334
600.466	1.07015479
600.665	1.07050164
600.865	1.07067669
601.065	1.07140872
601.264	1.07154926
601.464	1.07189943
601.664	1.07269757
601.863	1.07311148
602.063	1.07368468
602.263	1.07385366
602.462	1.07425443
602.662	1.07487119
602.861	1.07488156
603.061	1.07506146
603.26	1.07539872
603.46	1.07535151
603.659	1.07608544
603.859	1.07622104
604.058	1.07620624
604.258	1.07659774
604.457	1.07719018
604.657	1.07718168
604.856	1.07732758
605.056	1.07742736
605.255	1.07723727
605.454	1.07714561
605.654	1.0772406
605.853	1.07686139
606.052	1.07673422
606.252	1.07670638
606.451	1.07690705
606.65	1.07731925
606.849	1.07740251
607.049	1.07740308
607.248	1.07717291
607.447	1.07745543
607.646	1.07787968
607.845	1.07763218
608.045	1.07740775
608.244	1.07755744
608.443	1.07757947
608.642	1.07771307
608.841	1.0775175
609.04	1.07710355
609.239	1.07719571
609.438	1.07699279
609.637	1.07663564
609.836	1.07644827
610.035	1.07629876
610.234	1.07623596
610.433	1.07619948
610.632	1.07605294
610.831	1.07584836
611.03	1.07586567
611.229	1.07600832
611.428	1.07580995
611.627	1.07568809
611.826	1.075418
612.025	1.07514923
612.224	1.07489957
612.422	1.07450229
612.621	1.07379963
612.82	1.07354392
613.019	1.07297839
613.218	1.07266412
613.416	1.07199342
613.615	1.07166232
613.814	1.07106649
614.012	1.07075081
614.211	1.07013615
614.41	1.06977885
614.608	1.06930512
614.807	1.06900033
615.006	1.06848169
615.204	1.0679147
615.403	1.06759483
615.602	1.06728576
615.8	1.06667494
615.999	1.06595461
616.197	1.06537056
616.396	1.064905
616.594	1.06444989
616.793	1.06391089
616.991	1.06317379
617.19	1.06269231
617.388	1.0624178
617.586	1.06183233
617.785	1.06108284
617.983	1.06071244
618.182	1.05979253
618.38	1.05905359
618.578	1.0582029
618.777	1.05743228
618.975	1.05700783
619.173	1.05645967
619.372	1.05568783
619.57	1.05505132
619.768	1.05459068
619.966	1.05397114
620.165	1.05285967
620.363	1.05194741
620.561	1.05106529
620.759	1.05035692
620.957	1.04968358
621.155	1.04872332
621.354	1.04803376
621.552	1.04773762
621.75	1.046815
621.948	1.04613972
622.146	1.04510022
622.344	1.04394183
622.542	1.04317653
622.74	1.04191344
622.938	1.04086318
623.136	1.04008056
623.334	1.03930478
623.532	1.03839632
623.73	1.03770666
623.928	1.03681562
624.126	1.03631154
624.324	1.03552042
624.522	1.03432335
624.719	1.03296717
624.917	1.03214137
625.115	1.03088364
625.313	1.03000886
625.511	1.02897995
625.708	1.02757733
625.906	1.02655276
626.104	1.02558846
626.302	1.02450069
626.499	1.02360904
626.697	1.0223644
626.895	1.02119975
627.093	1.02044389
627.29	1.01961687
627.488	1.01855302
627.686	1.0175538
627.883	1.01653039
628.081	1.01525712
628.278	1.01413276
628.476	1.01285042
628.673	1.01160457
628.871	1.01053908
629.068	1.00937535
629.266	1.00809912
629.463	1.00718021
629.661	1.00597999
629.858	1.00494628
630.056	1.00368664
630.253	1.00268249
630.451	1.0013057
630.648	1.00010456
630.845	0.99876853
631.043	0.99746205
631.24	0.99616801
631.438	0.99481601
631.635	0.99327967
631.832	0.9918435
632.029	0.99072151
632.227	0.98922031
632.424	0.98805158
632.621	0.98654462
632.818	0.98537876
633.016	0.98389696
633.213	0.98266906
633.41	0.98094557
633.607	0.97956585
633.804	0.97808348
634.001	0.97670392
634.199	0.97505171
634.396	0.97378697
634.593	0.97227098
634.79	0.97113334
634.987	0.96976796
635.184	0.96829908
635.381	0.96685553
635.578	0.96563706
635.775	0.96429886
635.972	0.96299021
636.169	0.96146937
636.366	0.96009286
636.563	0.95863924
636.76	0.9571381
636.957	0.95565494
637.153	0.95379528
637.35	0.95250543
637.547	0.95099264
637.744	0.94934313
637.941	0.94796856
638.138	0.94634223
638.334	0.9447393
638.531	0.94347822
638.728	0.94163874
638.925	0.9400871
639.121	0.93864569
639.318	0.93675612
639.515	0.93506849
639.711	0.93354235
639.908	0.93152427
640.105	0.92993132
640.301	0.92821678
640.498	0.92644128
640.695	0.9250481
640.891	0.92347711
641.088	0.92168696
641.284	0.92016601
641.481	0.91849368
641.677	0.91681459
641.874	0.91497958
642.07	0.91317332
642.267	0.91187779
642.463	0.91012122
642.66	0.90876881
642.856	0.90696969
643.053	0.90510427
643.249	0.90361416
643.445	0.90190965
643.642	0.89984327
643.838	0.89837679
644.034	0.89649655
644.231	0.89483665
644.427	0.89318557
644.623	0.89134762
644.82	0.88963192
645.016	0.88785228
645.212	0.88584775
645.408	0.88397029
645.604	0.88241769
645.801	0.88087061
645.997	0.87915802
646.193	0.87740979
646.389	0.87589601
646.585	0.87433771
646.781	0.87262982
646.977	0.87094316
647.173	0.8690909
647.37	0.86726751
647.566	0.86540357
647.762	0.86342376
647.958	0.86168181
648.154	0.85974932
648.35	0.85773562
648.546	0.85559518
648.742	0.85380435
648.937	0.85188368
649.133	0.85017845
649.329	0.84818184
649.525	0.84638631
649.721	0.84450907
649.917	0.8429557
650.113	0.84102724
650.309	0.83928056
650.504	0.83722535
650.7	0.83534779
650.896	0.83339907
651.092	0.83149324
651.287	0.8295414
651.483	0.82761626
651.679	0.82582645
651.875	0.82388314
652.07	0.82200398
652.266	0.82017278
652.462	0.81829083
652.657	0.81621302
652.853	0.814203
653.048	0.81210625
653.244	0.8102127
653.44	0.80820725
653.635	0.80614862
653.831	0.8040992
654.026	0.80238252
654.222	0.80041846
654.417	0.79854892
654.613	0.796543
654.808	0.79435372
655.004	0.79243763
655.199	0.79053398
655.394	0.7885379
655.59	0.78670421
655.785	0.78466932
655.98	0.78277157
656.176	0.7808566
656.371	0.77901995
656.566	0.77702348
656.762	0.77497973
656.957	0.77294351
657.152	0.7709693
657.348	0.76897969
657.543	0.76716199
657.738	0.76513746
657.933	0.76320029
658.128	0.76115228
658.324	0.7591491
658.519	0.75729228
658.714	0.75536691
658.909	0.75329651
659.104	0.75146195
659.299	0.7494208
659.494	0.74740364
659.689	0.74555388
659.884	0.74334022
660.079	0.74128065
660.274	0.73932313
660.469	0.73721796
660.664	0.73541541
660.859	0.73347699
661.054	0.73132214
661.249	0.72938885
661.444	0.72737144
661.639	0.72532871
661.834	0.72325362
662.029	0.7211298
662.224	0.71912696
662.418	0.71719816
662.613	0.71533182
662.808	0.71325196
663.003	0.71122925
663.198	0.70914992
663.392	0.70696969
663.587	0.70496043
663.782	0.70281661
663.977	0.70062452
664.171	0.69865567
664.366	0.69659827
664.561	0.69456231
664.755	0.69256933
664.95	0.69058215
665.144	0.68860468
665.339	0.68670981
665.534	0.68471791
665.728	0.68277636
665.923	0.68079829
666.117	0.67876781
666.312	0.67671265
666.506	0.6746578
666.701	0.67249736
666.895	0.67041806
667.09	0.66829223
667.284	0.66641355
667.479	0.6644345
667.673	0.6624299
667.867	0.66051758
668.062	0.65855049
668.256	0.65658038
668.45	0.65475271
668.645	0.65260541
668.839	0.65062415
669.033	0.64846829
669.228	0.64631263
669.422	0.64423648
669.616	0.64209388
669.81	0.64004785
670.004	0.63804303
670.199	0.63602225
670.393	0.63405633
670.587	0.63200905
670.781	0.63008079
670.975	0.62812438
671.169	0.62590577
671.363	0.62383717
671.558	0.6217775
671.752	0.61983954
671.946	0.61806521
672.14	0.6161007
672.334	0.61408607
672.528	0.61228498
672.722	0.6101385
672.916	0.60810592
673.11	0.60600275
673.304	0.60400608
673.497	0.60175305
673.691	0.59988692
673.885	0.59769791
674.079	0.5958431
674.273	0.5938932
674.467	0.5920234
674.661	0.58995872
674.854	0.58800135
675.048	0.58588423
675.242	0.58397074
675.436	0.58192573
675.629	0.57982873
675.823	0.57764588
676.017	0.57566742
676.211	0.57375466
676.404	0.57177589
676.598	0.56985914
676.792	0.56787082
676.985	0.56596556
677.179	0.56406175
677.372	0.56206441
677.566	0.56009075
677.76	0.55810072
677.953	0.55595287
678.147	0.55404044
678.34	0.55207376
678.534	0.55014236
678.727	0.54827813
678.921	0.54649825
679.114	0.54461584
679.307	0.54286892
679.501	0.54100706
679.694	0.53915359
679.888	0.53718717
680.081	0.53530515
680.274	0.53316149
680.468	0.53118037
680.661	0.52911963
680.854	0.52714331
681.048	0.52516846
681.241	0.52322951
681.434	0.52123944
681.627	0.51938782
681.821	0.51754313
682.014	0.51575954
682.207	0.51382762
682.4	0.51193325
682.593	0.51002067
682.786	0.50810844
682.98	0.50625763
683.173	0.504488
683.366	0.50267349
683.559	0.50093832
683.752	0.49917863
683.945	0.49736695
684.138	0.49560403
684.331	0.4937297
684.524	0.49185756
684.717	0.48983059
684.91	0.4879868
685.103	0.48608721
685.296	0.48425754
685.489	0.48235819
685.682	0.48047581
685.874	0.47871185
686.067	0.47693313
686.26	0.47497004
686.453	0.47302397
686.646	0.47106315
686.839	0.46919879
687.031	0.46727636
687.224	0.46517249
687.417	0.46343943
687.61	0.46158214
687.802	0.45984317
687.995	0.45817061
688.188	0.45643357
688.38	0.45474754
688.573	0.45310048
688.766	0.45129945
688.958	0.44959611
689.151	0.44778118
689.343	0.4459708
689.536	0.44419594
689.729	0.44246818
689.921	0.4407761
690.114	0.43901653
690.306	0.43729635
690.499	0.43560185
690.691	0.43389121
690.884	0.43218777
691.076	0.43039252
691.268	0.42853632
691.461	0.42671665
691.653	0.42494452
691.846	0.42320349
692.038	0.42145515
692.23	0.41959487
692.423	0.41794158
692.615	0.41629499
692.807	0.41470611
692.999	0.4130895
693.192	0.41139448
693.384	0.40978649
693.576	0.40818434
693.768	0.40656215
693.961	0.40487601
694.153	0.4031713
694.345	0.40140119
694.537	0.39976581
694.729	0.39801982
694.921	0.3963438
695.113	0.3947302
695.305	0.39308951
695.498	0.39135753
695.69	0.38980508
695.882	0.38813055
696.074	0.38669974
696.266	0.38509412
696.458	0.38332019
696.65	0.3816747
696.842	0.38014775
697.033	0.37850646
697.225	0.37687378
697.417	0.3752115
697.609	0.37356776
697.801	0.37206955
697.993	0.37052339
698.185	0.36891197
698.376	0.36737875
698.568	0.365844
698.76	0.364295
698.952	0.36278898
699.144	0.36117791
699.335	0.35968302
699.527	0.35811501
699.719	0.35660187
699.91	0.35507915
700.102	0.35353832
700.294	0.35201609
700.485	0.3505019
700.677	0.3488732
700.869	0.34745837
701.06	0.34591889
701.252	0.34442038
701.443	0.34293973
701.635	0.34148772
701.826	0.34004022
702.018	0.33859611
702.209	0.33707656
702.401	0.33556051
702.592	0.33410703
702.784	0.33268149
702.975	0.33121348
703.166	0.32981219
703.358	0.32835047
703.549	0.32701355
703.741	0.32561093
703.932	0.32421342
704.123	0.32276396
704.315	0.32136649
704.506	0.32000202
704.697	0.31854701
704.888	0.31715304
705.08	0.31583709
705.271	0.31445823
705.462	0.31302102
705.653	0.311587
705.844	0.31012466
706.035	0.30885308
706.227	0.30752572
706.418	0.30615456
706.609	0.30482943
706.8	0.30350896
706.991	0.30215844
707.182	0.30088073
707.373	0.29945572
707.564	0.29805045
707.755	0.29663201
707.946	0.29525408
708.137	0.29383711
708.328	0.29244114
708.519	0.2910978
708.71	0.2898473
708.901	0.28856858
709.092	0.28738575
709.283	0.28616215
709.473	0.28497724
709.664	0.2838871
709.855	0.28261575
710.046	0.28134664
710.237	0.28005322
710.427	0.27875334
710.618	0.27753075
710.809	0.27624032
711	0.27499712
711.19	0.27371401
711.381	0.27257839
711.572	0.27136043
711.762	0.27019435
711.953	0.26893431
712.144	0.26768059
712.334	0.26634356
712.525	0.26520661
712.715	0.26394527
712.906	0.26269516
713.097	0.2613734
713.287	0.26016716
713.478	0.25898157
713.668	0.25783451
713.859	0.2566602
714.049	0.25551595
714.239	0.25442449
714.43	0.25333183
714.62	0.25214472
714.811	0.25098302
715.001	0.24986861
715.191	0.24862595
715.382	0.24734837
715.572	0.24619059
715.762	0.24507969
715.953	0.24406243
716.143	0.24303005
716.333	0.24194186
716.523	0.24090024
716.714	0.23993701
716.904	0.23880706
717.094	0.23768437
717.284	0.23653889
717.474	0.23543096
717.664	0.23439869
717.855	0.23333583
718.045	0.23222628
718.235	0.23113195
718.425	0.23012062
718.615	0.22906488
718.805	0.22801431
718.995	0.22698176
719.185	0.22604033
719.375	0.22500789
719.565	0.22409126
719.755	0.22307394
719.945	0.2221225
720.135	0.22113461
720.325	0.22009591
720.515	0.21904682
720.704	0.21816486
720.894	0.21726982
721.084	0.21645211
721.274	0.21555048
721.464	0.21463227
721.654	0.21374495
721.843	0.212829
722.033	0.21186718
722.223	0.21085773
722.413	0.20983047
722.602	0.20885462
722.792	0.20790089
722.982	0.20693872
723.171	0.20601964
723.361	0.20509075
723.55	0.20416889
723.74	0.20321527
723.93	0.20222906
724.119	0.20127969
724.309	0.20032592
724.498	0.19933412
724.688	0.19841101
724.877	0.19754538
725.067	0.19662407
725.256	0.1957442
725.446	0.19486445
725.635	0.19395998
725.825	0.19303126
726.014	0.19207468
726.203	0.19108241
726.393	0.19013649
726.582	0.18914351
726.771	0.18829115
726.961	0.18747409
727.15	0.18666175
727.339	0.18588146
727.529	0.18513587
727.718	0.18432245
727.907	0.18357333
728.096	0.18268078
728.286	0.18175296
728.475	0.1808987
728.664	0.18003829
728.853	0.17917962
729.042	0.17832222
729.231	0.17750833
729.42	0.17675654
729.609	0.17604826
729.799	0.17529203
729.988	0.1745683
730.177	0.17371433
730.366	0.17289954
730.555	0.17208414
730.744	0.17123651
730.933	0.17037872
731.122	0.16957297
731.31	0.16870817
731.499	0.16800104
731.688	0.16725836
731.877	0.16643771
732.066	0.16571304
732.255	0.16500956
732.444	0.16427029
732.632	0.16345843
732.821	0.16259378
733.01	0.1618627
733.199	0.16119391
733.388	0.16047202
733.576	0.15977324
733.765	0.15900805
733.954	0.15839039
734.142	0.15777493
734.331	0.15698819
734.52	0.15619128
734.708	0.15536092
734.897	0.15455616
735.086	0.15381338
735.274	0.15305764
735.463	0.15236316
735.651	0.1517512
735.84	0.15111897
736.028	0.15045968
736.217	0.14976124
736.405	0.14903963
736.594	0.1483275
736.782	0.14755772
736.971	0.1468536
737.159	0.14618323
737.347	0.14554462
737.536	0.14492711
737.724	0.14437444
737.912	0.14378128
738.101	0.1431935
738.289	0.14266109
738.477	0.14208091
738.666	0.1414743
738.854	0.14084265
739.042	0.14024739
739.23	0.13960342
739.418	0.13897804
739.607	0.13825874
739.795	0.13758392
739.983	0.13694789
740.171	0.13641454
740.359	0.1358129
740.547	0.13521374
740.735	0.1345955
740.923	0.13402155
741.112	0.13346294
741.3	0.13286824
741.488	0.13223637
741.676	0.13165692
741.864	0.13112232
742.052	0.13060767
742.239	0.1299668
742.427	0.12941664
742.615	0.12886869
742.803	0.12838884
742.991	0.12784937
743.179	0.12730158
743.367	0.12675731
743.555	0.12634052
743.742	0.12588
743.93	0.12538801
744.118	0.12477003
744.306	0.12424175
744.494	0.12375856
744.681	0.12325543
744.869	0.1227251
745.057	0.12221302
745.244	0.12177837
745.432	0.12138505
745.62	0.12096104
745.807	0.12048287
745.995	0.12006242
746.182	0.11955484
746.37	0.11897479
746.558	0.1184258
746.745	0.11790099
746.933	0.11727263
747.12	0.11671559
747.308	0.11618633
747.495	0.11573553
747.683	0.11528956
747.87	0.1148362
748.057	0.11435323
748.245	0.11393219
748.432	0.1135175
748.62	0.11303349
748.807	0.11258561
748.994	0.11214818
749.182	0.11167508
749.369	0.11120003
749.556	0.11076128
749.743	0.11027582
749.931	0.10986132
750.118	0.10946198
750.305	0.10905287
750.492	0.1086764
750.68	0.10829164
750.867	0.10787138
751.054	0.10746175
751.241	0.1069401
751.428	0.10641683
751.615	0.10588368
751.802	0.10538246
751.989	0.10487564
752.176	0.10444936
752.363	0.10403112
752.55	0.10369028
752.737	0.10330787
752.924	0.10297212
753.111	0.10259324
753.298	0.10228637
753.485	0.10193911
753.672	0.101632
753.859	0.10134706
754.046	0.10104482
754.233	0.10070518
754.42	0.10042873
754.606	0.09997653
754.793	0.09957269
754.98	0.09914396
755.167	0.09865167
755.353	0.09820672
755.54	0.09783001
755.727	0.0974133
755.914	0.09714833
756.1	0.09685242
756.287	0.09649442
756.474	0.09611911
756.66	0.09580697
756.847	0.09552452
757.033	0.09515977
757.22	0.09479298
757.407	0.09446763
757.593	0.09415656
757.78	0.09381971
757.966	0.0934988
758.153	0.09312116
758.339	0.09280206
758.526	0.09242687
758.712	0.09196917
758.898	0.09163267
759.085	0.09133395
759.271	0.09093471
759.458	0.09049999
759.644	0.0901876
759.83	0.08987958
760.017	0.08961646
760.203	0.08928305
760.389	0.08897588
760.576	0.08868699
760.762	0.08847634
760.948	0.08813925
761.134	0.08793378
761.32	0.08772436
761.507	0.0874548
761.693	0.08720942
761.879	0.08697005
762.065	0.08674517
762.251	0.08648893
762.437	0.08619922
762.623	0.08591984
762.809	0.08566797
762.995	0.08540448
763.181	0.08516135
763.367	0.08486183
763.553	0.0845976
763.739	0.08431603
763.925	0.08400494
764.111	0.08377152
764.297	0.08352189
764.483	0.0832967
764.669	0.08300643
764.855	0.0827007
765.041	0.08240439
765.227	0.08210254
765.412	0.08180489
765.598	0.08149378
765.784	0.08117006
765.97	0.08093703
766.156	0.0807105
766.341	0.08044246
766.527	0.08021441
766.713	0.07994018
766.898	0.07967663
767.084	0.07939899
767.27	0.07913233
767.455	0.07897019
767.641	0.0787821
767.827	0.07853668
768.012	0.07840348
768.198	0.07827425
768.383	0.0780877
768.569	0.07792851
768.754	0.07766508
768.94	0.07741122
769.125	0.07715604
769.311	0.07681627
769.496	0.07648392
769.682	0.07626072
769.867	0.07608468
770.052	0.07592209
770.238	0.07580631
770.423	0.07574834
770.608	0.07565076
770.794	0.07558706
770.979	0.07540649
771.164	0.07510596
771.35	0.07480716
771.535	0.07448767
771.72	0.07422648
771.905	0.07399956
772.09	0.07378461
772.276	0.07358
772.461	0.07338192
772.646	0.0732504
772.831	0.0731361
773.016	0.0729762
773.201	0.07282937
773.386	0.07265536
773.571	0.07260238
773.756	0.07253504
773.941	0.07242854
774.126	0.07233414
774.311	0.07212918
774.496	0.07199157
774.681	0.07189422
774.866	0.07169994
775.051	0.0715317
775.236	0.07134167
775.421	0.07110104
775.606	0.07096506
775.791	0.070756
775.976	0.07054258
776.16	0.07037473
776.345	0.07017764
776.53	0.06991562
776.715	0.06972803
776.899	0.06952386
777.084	0.06928434
777.269	0.0689973
777.454	0.06870862
777.638	0.06846796
777.823	0.06833488
778.008	0.06817636
778.192	0.06808385
778.377	0.06804532
778.561	0.06800902
778.746	0.06802244
778.931	0.06807801
779.115	0.0680544
779.3	0.06797206
779.484	0.06775939
779.669	0.06755044
779.853	0.06735937
780.037	0.06707496
780.222	0.06677487
780.406	0.06651165
780.591	0.06622335
780.775	0.06603138
780.959	0.06580951
781.144	0.06558231
781.328	0.06538842
781.512	0.06516927
781.697	0.06499428
781.881	0.06487388
782.065	0.06479872
782.249	0.06468131
782.434	0.06460944
782.618	0.06451294
782.802	0.06446145
782.986	0.06435159
783.17	0.06426218
783.354	0.06409635
783.539	0.06402881
783.723	0.06389808
783.907	0.06382121
784.091	0.0636749
784.275	0.06355177
784.459	0.06340504
784.643	0.0633231
784.827	0.06321118
785.011	0.06307627
785.195	0.0629504
785.379	0.06285286
785.563	0.06276119
785.747	0.06268554
785.93	0.06254379
786.114	0.06235895
786.298	0.06223356
786.482	0.06211038
786.666	0.06198096
786.85	0.06184607
787.033	0.06173099
787.217	0.06159203
787.401	0.06146645
787.585	0.06140698
787.768	0.06126052
787.952	0.06112184
788.136	0.06098057
788.319	0.06082594
788.503	0.06071971
788.687	0.06067051
788.87	0.06059183
789.054	0.06046967
789.237	0.06044318
789.421	0.0604093
789.605	0.06029995
789.788	0.06021611
789.972	0.06009077
790.155	0.05989922
790.338	0.0598305
790.522	0.05964691
790.705	0.05945053
790.889	0.05934259
791.072	0.0591109
791.256	0.05904516
791.439	0.05893862
791.622	0.05883926
791.806	0.05870898
791.989	0.05866898
792.172	0.05858529
792.355	0.0586141
792.539	0.05853158
792.722	0.05843734
792.905	0.05833567
793.088	0.05828576
793.271	0.05816179
793.455	0.05812075
793.638	0.05810383
793.821	0.05803418
794.004	0.0580229
794.187	0.05801458
794.37	0.05803229
794.553	0.05809011
794.736	0.05807262
794.919	0.05803067
795.102	0.05792666
795.285	0.05786431
795.468	0.05776163
795.651	0.05765043
795.834	0.05762918
796.017	0.05764085
796.2	0.05760956
796.383	0.05763821
796.566	0.05768248
796.749	0.05773963
796.931	0.05779409
797.114	0.0576619
797.297	0.05759491
797.48	0.05749825
797.663	0.05737872
797.845	0.05730722
798.028	0.05717425
798.211	0.0570452
798.393	0.05695767
798.576	0.05680452
798.759	0.05675082
798.941	0.05678076
799.124	0.05668029
799.307	0.05656248
799.489	0.05650239
799.672	0.05648322
799.854	0.05651625
800.037	0.05649677
800.219	0.05645465
800.402	0.05646248
800.584	0.05657304
800.767	0.05664366
800.949	0.05667344
801.132	0.05667334
801.314	0.05671551
801.496	0.05667914
801.679	0.05660745
801.861	0.05650212
802.043	0.05635758
802.226	0.05625095
802.408	0.05607107
802.59	0.0559291
802.772	0.05573841
802.955	0.05561554
803.137	0.05550036
803.319	0.05543024
803.501	0.05536756
803.684	0.05540566
803.866	0.055348
804.048	0.05540388
804.23	0.05543388
804.412	0.05544569
804.594	0.05542855
804.776	0.05542018
804.958	0.05531781
805.14	0.05529766
805.322	0.05520085
805.504	0.05514344
805.686	0.0550529
805.868	0.05494152
806.05	0.05481169
806.232	0.05477523
806.414	0.05461445
806.596	0.05452714
806.778	0.05439268
806.96	0.05434238
807.141	0.05430322
807.323	0.0542613
807.505	0.05415802
807.687	0.05409857
807.869	0.05412024
808.05	0.0541334
808.232	0.05411513
808.414	0.05411647
808.595	0.05414561
808.777	0.05421842
808.959	0.05426483
809.14	0.05424852
809.322	0.05431
809.504	0.05430859
809.685	0.05424929
809.867	0.0541763
810.048	0.05405253
810.23	0.05393058
810.411	0.05374903
810.593	0.05349575
810.774	0.05334248
810.956	0.05323941
811.137	0.05310298
811.319	0.05295836
811.5	0.05283085
811.681	0.05277792
811.863	0.05274092
812.044	0.0526607
812.225	0.05265065
812.407	0.05260453
812.588	0.05256502
812.769	0.05257434
812.951	0.05254248
813.132	0.05251028
813.313	0.05253859
813.494	0.05245613
813.675	0.05252212
813.857	0.05255342
814.038	0.05256052
814.219	0.05253178
814.4	0.05249146
814.581	0.05237032
814.762	0.05225248
814.943	0.05213578
815.124	0.05202272
815.305	0.05196439
815.486	0.05197328
815.667	0.05192049
815.848	0.05188449
816.029	0.05186515
816.21	0.05180599
816.391	0.05182131
816.572	0.05178663
816.753	0.05172218
816.934	0.05171642
817.115	0.05173566
817.295	0.05179955
817.476	0.05179992
817.657	0.05179833
817.838	0.05179694
818.019	0.05182629
818.199	0.05186475
818.38	0.05193135
818.561	0.05195501
818.741	0.05204539
818.922	0.05204919
819.103	0.05200705
819.283	0.05204429
819.464	0.0520644
819.645	0.05200524
819.825	0.05195433
820.006	0.05181998
820.186	0.05173548
820.367	0.05167019
820.547	0.05156615
820.728	0.05150843
820.908	0.05151106
821.089	0.05154003
821.269	0.05158531
821.45	0.05171241
821.63	0.0518132
821.81	0.05182554
821.991	0.0517563
822.171	0.05175296
822.351	0.05168419
822.532	0.05162551
822.712	0.05148401
822.892	0.05147253
823.072	0.05153072
823.253	0.05171101
823.433	0.05177992
823.613	0.05189866
823.793	0.05197274
823.973	0.05212687
824.154	0.05214982
824.334	0.05211524
824.514	0.0520256
824.694	0.05196604
824.874	0.05189561
825.054	0.05187612
825.234	0.0517906
825.414	0.0517679
825.594	0.05173758
825.774	0.05170585
825.954	0.05163429
826.134	0.05167329
826.314	0.05162047
826.494	0.05163541
826.674	0.05162331
826.854	0.05164598
827.033	0.0516483
827.213	0.05175529
827.393	0.05171028
827.573	0.05177922
827.753	0.05181138
827.932	0.05187634
828.112	0.05188027
828.292	0.05191745
828.472	0.05192675
828.651	0.05188349
828.831	0.05186134
829.011	0.05174981
829.19	0.05161483
829.37	0.05154756
829.549	0.05146701
829.729	0.05128864
829.909	0.05120752
830.088	0.05109739
830.268	0.05102723
830.447	0.05098609
830.627	0.05097783
830.806	0.05100325
830.986	0.05109765
831.165	0.05117747
831.344	0.05126018
831.524	0.0513836
831.703	0.05147549
831.883	0.05148941
832.062	0.05145677
832.241	0.05142621
832.421	0.05138683
832.6	0.05128931
832.779	0.05119053
832.958	0.05107965
833.138	0.05103503
833.317	0.05089244
833.496	0.05077255
833.675	0.05071091
833.854	0.05073576
834.034	0.05069158
834.213	0.05072658
834.392	0.05075321
834.571	0.05092266
834.75	0.05103605
834.929	0.05112564
835.108	0.05115397
835.287	0.05120488
835.466	0.05124706
835.645	0.05120557
835.824	0.05114343
836.003	0.05104943
836.182	0.05101006
836.361	0.0510065
836.54	0.05097669
836.719	0.05095554
836.897	0.05090007
837.076	0.05091504
837.255	0.05100992
837.434	0.05092562
837.613	0.05086558
837.791	0.05087365
837.97	0.05080312
838.149	0.05077558
838.328	0.050643
838.506	0.05047564
838.685	0.05044204
838.864	0.05038429
839.042	0.05041191
839.221	0.05043851
839.4	0.05044621
839.578	0.05058359
839.757	0.05069849
839.935	0.05077229
840.114	0.05086879
840.292	0.0508413
840.471	0.05082666
840.649	0.0509549
840.828	0.05090322
841.006	0.05083124
841.185	0.05087176
841.363	0.05077869
841.541	0.05075254
841.72	0.0507194
841.898	0.05070859
842.076	0.05074738
842.255	0.05078643
842.433	0.05080001
842.611	0.05083127
842.789	0.0507973
842.968	0.05086766
843.146	0.05080447
843.324	0.05076343
843.502	0.0507592
843.68	0.05068141
843.859	0.05067597
844.037	0.05065731
844.215	0.05060517
844.393	0.05063379
844.571	0.05065058
844.749	0.05069111
844.927	0.05075596
845.105	0.05080655
845.283	0.05096496
845.461	0.05101092
845.639	0.05094146
845.817	0.05088207
845.995	0.05082475
846.173	0.05080073
846.351	0.05074252
846.529	0.0506079
846.706	0.05056559
846.884	0.05062661
847.062	0.05058087
847.24	0.05062172
847.418	0.05054814
847.595	0.05042689
847.773	0.05037431
847.951	0.05025383
848.129	0.05020959
848.306	0.05022013
848.484	0.05009216
848.662	0.05004398
848.839	0.05007232
849.017	0.05004008
849.194	0.05005579
849.372	0.04992128
849.549	0.04990225
849.727	0.04992089
849.905	0.04992903
850.082	0.04995204
850.26	0.0499864
850.437	0.05005594
850.614	0.05013322
850.792	0.05010549
850.969	0.05009014
851.147	0.05013484
851.324	0.05022575
851.501	0.05032726
851.679	0.05045604
851.856	0.05048537
852.033	0.05061229
852.211	0.05068109
852.388	0.05062131
852.565	0.05055697
852.742	0.05045001
852.92	0.05021835
853.097	0.05000929
853.274	0.04983317
853.451	0.04976509
853.628	0.04983319
853.805	0.04977031
853.982	0.04976084
854.159	0.04986839
854.336	0.05006716
854.514	0.05017223
854.691	0.05016791
854.868	0.05014148
855.045	0.05017345
855.221	0.0501724
855.398	0.05004637
855.575	0.0499856
855.752	0.04989747
855.929	0.0499455
856.106	0.04993155
856.283	0.04998073
856.46	0.05002024
856.637	0.05012064
856.813	0.05012326
856.99	0.05019688
857.167	0.05012689
857.344	0.05011209
857.52	0.05002789
857.697	0.04992837
857.874	0.04987914
858.05	0.04985871
858.227	0.04981472
858.404	0.04977898
858.58	0.04979946
858.757	0.04985378
858.933	0.04995289
859.11	0.04994256
859.287	0.04986381
859.463	0.0498058
859.64	0.04984854
859.816	0.04971381
859.993	0.04966813
860.169	0.04955498
860.345	0.04949516
860.522	0.04949372
860.698	0.0494754
860.875	0.04942173
861.051	0.04949261
861.227	0.04945208
861.404	0.04948519
861.58	0.04949694
861.756	0.04947144
861.932	0.04949917
862.109	0.04943181
862.285	0.04940688
862.461	0.04941326
862.637	0.04950458
862.813	0.04956215
862.99	0.04956926
863.166	0.04958509
863.342	0.04973615
863.518	0.04981252
863.694	0.04982346
863.87	0.04976831
864.046	0.04968648
864.222	0.04965749
864.398	0.04953032
864.574	0.04930872
864.75	0.04911802
864.926	0.04910398
865.102	0.04895129
865.278	0.04893325
865.454	0.04889643
865.63	0.04888184
865.805	0.04892565
865.981	0.04899483
866.157	0.04894545
866.333	0.04893017
866.509	0.0488794
866.684	0.04889643
866.86	0.04894698
867.036	0.04883719
867.212	0.04884922
867.387	0.04892203
867.563	0.04900258
867.739	0.04910011
867.914	0.04920847
868.09	0.04930755
868.265	0.0495122
868.441	0.04948777
868.617	0.04935808
868.792	0.04930976
868.968	0.04920579
869.143	0.04917163
869.319	0.04910515
869.494	0.04906708
869.67	0.04904876
869.845	0.04909447
870.02	0.04908355
870.196	0.04911764
870.371	0.04904134
870.546	0.04892539
870.722	0.0488736
870.897	0.04887077
871.072	0.04884292
871.248	0.0487536
871.423	0.04871688
871.598	0.04876979
871.773	0.04870053
871.949	0.04870048
872.124	0.04866074
872.299	0.04860157
872.474	0.04870193
872.649	0.04877588
872.824	0.04879249
872.999	0.0489663
873.174	0.04892616
873.349	0.04886953
873.524	0.04883048
873.699	0.04885912
873.874	0.04867492
874.049	0.0486305
874.224	0.04853149
874.399	0.04852792
874.574	0.04851764
874.749	0.04849905
874.924	0.04834818
875.099	0.04837674
875.274	0.04825559
875.449	0.04818092
875.623	0.04820908
875.798	0.04825266
875.973	0.04830811
876.148	0.04831645
876.322	0.04836935
876.497	0.04834439
876.672	0.04836589
876.846	0.04817855
877.021	0.0480911
877.196	0.04804747
877.37	0.0480946
877.545	0.04810033
877.72	0.0481151
877.894	0.04802415
878.069	0.04801729
878.243	0.04793932
878.418	0.04787676
878.592	0.04775918
878.767	0.04753844
878.941	0.04742263
879.116	0.04737163
879.29	0.04734529
879.464	0.0474118
879.639	0.04739454
879.813	0.04745967
879.987	0.04749935
880.162	0.04752835
880.336	0.04755542
880.51	0.04756856
880.685	0.04753883
880.859	0.0474598
881.033	0.04726685
881.207	0.04714849
881.381	0.04708467
881.556	0.04699501
881.73	0.04697609
881.904	0.04682735
882.078	0.04685612
882.252	0.04677241
882.426	0.04684698
882.6	0.04685274
882.774	0.04698066
882.948	0.04701582
883.122	0.04713909
883.296	0.04716399
883.47	0.04732762
883.644	0.04733778
883.818	0.04733083
883.992	0.0471964
884.166	0.04716649
884.34	0.04705822
884.514	0.0470767
884.687	0.04701764
884.861	0.04697284
885.035	0.04696756
885.209	0.04699515
885.382	0.0469261
885.556	0.0468779
885.73	0.04672711
885.904	0.04673878
886.077	0.0466524
886.251	0.04658714
886.425	0.0465363
886.598	0.0465173
886.772	0.0464884
886.945	0.04647792
887.119	0.04633015
887.292	0.04636699
887.466	0.04630319
887.64	0.04626127
887.813	0.04624384
887.986	0.04621211
888.16	0.04618929
888.333	0.04622223
888.507	0.04620923
888.68	0.04616226
888.854	0.04606847
889.027	0.04604013
889.2	0.04603905
889.374	0.04598631
889.547	0.04603016
889.72	0.04600755
889.893	0.04603632
890.067	0.04608048
890.24	0.04600277
890.413	0.04600184
890.586	0.0459703
890.759	0.04591946
890.933	0.04585215
891.106	0.04579838
891.279	0.04582384
891.452	0.04583066
891.625	0.04580018
891.798	0.04573796
891.971	0.04553958
892.144	0.04541344
892.317	0.04537231
892.49	0.04522643
892.663	0.04513531
892.836	0.044981
893.009	0.04490021
893.182	0.04495513
893.355	0.0449319
893.527	0.04488249
893.7	0.04486894
893.873	0.04482281
894.046	0.04483421
894.219	0.04483223
894.391	0.04479472
894.564	0.0446965
894.737	0.04463093
894.91	0.04450856
895.082	0.04443158
895.255	0.04434173
895.428	0.044313
895.6	0.04423719
895.773	0.04432413
895.945	0.04431342
896.118	0.04437149
896.291	0.04438231
896.463	0.04439644
896.636	0.04432758
896.808	0.04421247
896.981	0.04419237
897.153	0.04416441
897.326	0.04415245
897.498	0.04412865
897.67	0.04406489
897.843	0.04412037
898.015	0.04417338
898.187	0.04402476
898.36	0.04404266
898.532	0.04397314
898.704	0.04404399
898.877	0.04416489
899.049	0.04412784
899.221	0.04407389
899.393	0.04406238
899.566	0.0439899
899.738	0.04387131
899.91	0.04377314
900.082	0.04355049
900.254	0.0434191
900.426	0.04339509
900.598	0.04340164
900.77	0.04339061
900.942	0.04336047
901.114	0.04324692
901.286	0.0432659
901.458	0.04330051
901.63	0.04340103
901.802	0.04348085
901.974	0.04346015
902.146	0.04351418
902.318	0.04366902
902.49	0.04371726
902.662	0.04366342
902.834	0.04360317
903.005	0.04350521
903.177	0.04343084
903.349	0.04343561
903.521	0.04327926
903.693	0.04318
903.864	0.04317978
904.036	0.04311402
904.208	0.04308744
904.379	0.04299443
904.551	0.04291006
904.723	0.04282921
904.894	0.04274379
905.066	0.04263037
905.237	0.04258622
905.409	0.04250668
905.58	0.04256541
905.752	0.04247708
905.923	0.04238886
906.095	0.04228991
906.266	0.04225489
906.438	0.04203638
906.609	0.04193542
906.78	0.04182877
906.952	0.04177978
907.123	0.04167567
907.295	0.04167964
907.466	0.04160182
907.637	0.04162229
907.808	0.04156811
907.98	0.04145335
908.151	0.04138265
908.322	0.04140509
908.493	0.04138001
908.665	0.04122937
908.836	0.04128466
909.007	0.04138268
909.178	0.0414001
909.349	0.04139285
909.52	0.04148374
909.691	0.04144049
909.862	0.04159099
910.033	0.04149704
910.204	0.04136253
910.375	0.04129811
910.546	0.04124423
910.717	0.04101453
910.888	0.04089794
911.059	0.04079359
911.23	0.04074868
911.401	0.04063845
911.572	0.04054312
911.742	0.04046417
911.913	0.04052324
912.084	0.04052108
912.255	0.04051256
912.426	0.04047894
912.596	0.04048138
912.767	0.04053738
912.938	0.04063143
913.108	0.04058728
913.279	0.04058009
913.45	0.04053369
913.62	0.04054258
913.791	0.04058602
913.962	0.04065235
914.132	0.04056423
914.303	0.04056475
914.473	0.04054526
914.644	0.04051918
914.814	0.04047464
914.985	0.04046785
915.155	0.04031915
915.326	0.04022274
915.496	0.04009735
915.666	0.04008384
915.837	0.04006251
916.007	0.040042
916.177	0.0398963
916.348	0.03980167
916.518	0.03973573
916.688	0.03972021
916.858	0.03966313
917.029	0.03950341
917.199	0.03938738
917.369	0.03929661
917.539	0.03921294
917.709	0.03914657
917.88	0.0390455
918.05	0.03885587
918.22	0.03880343
918.39	0.03875104
918.56	0.0388518
918.73	0.03899081
918.9	0.03913444
919.07	0.03924975
919.24	0.03945128
919.41	0.03958033
919.58	0.03956451
919.75	0.03953577
919.92	0.03928824
920.09	0.03913164
920.26	0.03902023
920.429	0.03879516
920.599	0.03867751
920.769	0.0386039
920.939	0.03840231
921.109	0.03849538
921.278	0.03833906
921.448	0.03820976
921.618	0.03814176
921.787	0.03808483
921.957	0.03801452
922.127	0.03804154
922.296	0.03790135
922.466	0.03801613
922.636	0.03810796
922.805	0.03830107
922.975	0.03822306
923.144	0.03831791
923.314	0.03831912
923.483	0.03836053
923.653	0.0383892
923.822	0.03831381
923.992	0.03824815
924.161	0.03835746
924.331	0.03814692
924.5	0.03811448
924.669	0.03803647
924.839	0.03788546
925.008	0.03782237
925.177	0.03772228
925.347	0.03762748
925.516	0.03777188
925.685	0.03765454
925.854	0.03765247
926.023	0.0377373
926.193	0.03768624
926.362	0.0374733
926.531	0.03738808
926.7	0.03716476
926.869	0.03707897
927.038	0.03706788
927.207	0.03692084
927.376	0.03677627
927.545	0.03686017
927.715	0.03683463
927.884	0.03677994
928.052	0.03671581
928.221	0.03655001
928.39	0.03649574
928.559	0.03650591
928.728	0.03641921
928.897	0.03638867
929.066	0.03649402
929.235	0.03653388
929.404	0.03646662
929.572	0.03639135
929.741	0.03633108
929.91	0.0363314
930.079	0.03613016
930.247	0.0360401
930.416	0.03599567
930.585	0.03605625
930.753	0.03607515
930.922	0.03602183
931.091	0.0360344
931.259	0.03610167
931.428	0.03608793
931.596	0.03611781
931.765	0.03608792
931.934	0.03612023
932.102	0.03607339
932.27	0.0360392
932.439	0.0361419
932.607	0.03609613
932.776	0.03601848
932.944	0.03601954
933.113	0.03600025
933.281	0.03619168
933.449	0.03631574
933.618	0.0363785
933.786	0.03644204
933.954	0.03627838
934.123	0.03651353
934.291	0.03657717
934.459	0.03669205
934.627	0.03673856
934.795	0.03667365
934.964	0.03668592
935.132	0.0369778
935.3	0.0368423
935.468	0.03663464
935.636	0.03662384
935.804	0.03657033
935.972	0.03669545
936.14	0.03694802
936.308	0.03717607
936.476	0.03725696
936.644	0.03778552
936.812	0.03790423
936.98	0.03795262
937.148	0.0381416
937.316	0.03820181
937.484	0.03841424
937.652	0.0388623
937.82	0.0391592
937.987	0.03951861
938.155	0.04012273
938.323	0.04035625
938.491	0.04069529
938.658	0.04114113
938.826	0.04109974
938.994	0.04131023
939.162	0.04144126
939.329	0.04152866
939.497	0.04217566
939.665	0.04260891
939.832	0.04271619
940	0.04361069
940.167	0.04387225
940.335	0.04420755
940.502	0.04488779
940.67	0.0448936
940.837	0.04539519
941.005	0.04605043
941.172	0.04624294
941.34	0.04652757
941.507	0.04786564
941.674	0.04802003
941.842	0.0482867
942.009	0.04823711
942.177	0.04819019
942.344	0.04880778
942.511	0.04932017
942.678	0.04880966
942.846	0.04935128
943.013	0.04948622
943.18	0.05043538
943.347	0.05093219
943.514	0.05094266
943.682	0.0516379
943.849	0.05134299
944.016	0.05100352
944.183	0.05164931
944.35	0.05189019
944.517	0.05184417
944.684	0.05226983
944.851	0.05135771
945.018	0.05163245
945.185	0.0517205
945.352	0.05205675
945.519	0.0517099
945.686	0.05204567
945.853	0.05135549
946.02	0.05163879
946.187	0.05153589
946.353	0.05132223
946.52	0.05072138
946.687	0.04984463
946.854	0.04957521
947.021	0.04938325
947.187	0.04846867
947.354	0.04791566
947.521	0.04750289
947.687	0.04699209
947.854	0.04683926
948.021	0.04613996
948.187	0.04630241
948.354	0.04603815
948.52	0.04575866
948.687	0.045557
948.854	0.0451817
949.02	0.04465293
949.187	0.0447446
949.353	0.04376403
949.52	0.04386411
949.686	0.04385481
949.852	0.04343624
950.019	0.04359978
950.185	0.04319798
950.352	0.04228837
950.518	0.04221781
950.684	0.04185787
950.851	0.04135841
951.017	0.04098381
951.183	0.03969757
951.349	0.03927208
951.516	0.03872191
951.682	0.03834584
951.848	0.03773722
952.014	0.03761017
952.18	0.03728156
952.346	0.03727969
952.512	0.03717888
952.679	0.03712142
952.845	0.03652434
953.011	0.03610965
953.177	0.03571016
953.343	0.03540332
953.509	0.03521316
953.675	0.03472157
953.841	0.03440001
954.007	0.03419983
954.172	0.03386466
954.338	0.03354306
954.504	0.03320115
954.67	0.03299889
954.836	0.03331676
955.002	0.03318886
955.167	0.03306271
955.333	0.03300217
955.499	0.03291221
955.665	0.03290883
955.83	0.03270682
955.996	0.03242141
956.162	0.03226729
956.327	0.03230284
956.493	0.03232505
956.659	0.03214991
956.824	0.03191036
956.99	0.03180892
957.155	0.03151442
957.321	0.03120012
957.486	0.03065306
957.652	0.03018154
957.817	0.03010767
957.983	0.02968389
958.148	0.02952709
958.314	0.02940378
958.479	0.02885656
958.644	0.02883935
958.81	0.02887758
958.975	0.02859048
959.14	0.02887281
959.306	0.02870814
959.471	0.02845385
959.636	0.02867951
959.801	0.02812471
959.967	0.02823964
960.132	0.02801606
960.297	0.02773272
960.462	0.0272222
960.627	0.02690595
960.792	0.02675333
960.957	0.02695767
961.123	0.02687299
961.288	0.02658179
961.453	0.02668142
961.618	0.02709912
961.783	0.0272518
961.948	0.02710673
962.113	0.02721761
962.277	0.02695476
962.442	0.02738912
962.607	0.02711617
962.772	0.02696867
962.937	0.02696852
963.102	0.0271446
963.267	0.0272882
963.431	0.02709011
963.596	0.02672327
963.761	0.02665886
963.926	0.02652343
964.09	0.02629238
964.255	0.0262783
964.42	0.02588548
964.584	0.02596173
964.749	0.02607532
964.914	0.0261286
965.078	0.02606793
965.243	0.02590439
965.407	0.02580964
965.572	0.02571718
965.736	0.02562813
965.901	0.02521824
966.065	0.02514144
966.23	0.02532398
966.394	0.02528026
966.559	0.02501071
966.723	0.02513766
966.887	0.02503572
967.052	0.02535868
967.216	0.02516237
967.38	0.02491645
967.545	0.02513766
967.709	0.02525345
967.873	0.02540721
968.037	0.02560378
968.202	0.0254017
968.366	0.0255237
968.53	0.0253661
968.694	0.02525207
968.858	0.02548983
969.022	0.02518437
969.187	0.02486466
969.351	0.02510843
969.515	0.02511629
969.679	0.02534038
969.843	0.02556001
970.007	0.02516981
970.171	0.02528639
970.335	0.02535663
970.499	0.02530902
970.662	0.02481682
970.826	0.02467749
970.99	0.02438515
971.154	0.02448622
971.318	0.0244652
971.482	0.02460277
971.645	0.02445858
971.809	0.02493237
971.973	0.02528284
972.137	0.02530337
972.3	0.02540396
972.464	0.02535802
972.628	0.02534485
972.791	0.02535764
972.955	0.02526826
973.119	0.0248816
973.282	0.02490855
973.446	0.02494154
973.609	0.02486189
973.773	0.02492613
973.936	0.02486751
974.1	0.02513235
974.263	0.02526849
974.427	0.02521841
974.59	0.02519934
974.754	0.02518308
974.917	0.02496841
975.08	0.02506297
975.244	0.02487197
975.407	0.02457033
975.57	0.0244948
975.734	0.02447837
975.897	0.02438412
976.06	0.0243437
976.223	0.02425975
976.387	0.02408135
976.55	0.02431831
976.713	0.02430205
976.876	0.02419094
977.039	0.02416376
977.202	0.02405144
977.365	0.02398595
977.528	0.02397644
977.692	0.02381551
977.855	0.02384019
978.018	0.0237877
978.181	0.02407274
978.344	0.02426394
978.506	0.02418
978.669	0.02411822
978.832	0.02388675
978.995	0.02393752
979.158	0.02402874
979.321	0.02373499
979.484	0.02359798
979.646	0.02355144
979.809	0.02402394
979.972	0.02437141
980.135	0.0245489
980.297	0.02422075
980.46	0.02413639
980.623	0.02421042
980.786	0.02452676
980.948	0.02429391
981.111	0.02413205
981.273	0.02411151
981.436	0.02424731
981.599	0.02444953
981.761	0.02429147
981.924	0.02408747
982.086	0.02394708
982.249	0.02397703
982.411	0.02378123
982.573	0.02380473
982.736	0.02388366
982.898	0.02390568
983.061	0.02376948
983.223	0.02385023
983.385	0.02379943
983.548	0.02373282
983.71	0.02356845
983.872	0.02340154
984.034	0.02343775
984.197	0.02348728
984.359	0.02323272
984.521	0.0234225
984.683	0.02347013
984.845	0.02368916
985.008	0.02390174
985.17	0.02393015
985.332	0.02398799
985.494	0.02393826
985.656	0.02369775
985.818	0.02348837
985.98	0.02321531
986.142	0.02299244
986.304	0.02298057
986.466	0.02285694
986.628	0.02292412
986.79	0.02281437
986.952	0.02303864
987.113	0.02278645
987.275	0.02263612
987.437	0.02254713
987.599	0.02259775
987.761	0.0226288
987.922	0.02304627
988.084	0.02301844
988.246	0.02332542
988.408	0.02322389
988.569	0.02323291
988.731	0.02342331
988.893	0.02345872
989.054	0.02303123
989.216	0.02308714
989.377	0.02323333
989.539	0.02347423
989.701	0.02374203
989.862	0.02319177
990.024	0.02308602
990.185	0.02297947
990.347	0.0227587
990.508	0.02291639
990.669	0.02270239
990.831	0.02213665
990.992	0.02212363
991.154	0.02222283
991.315	0.02241361
991.476	0.02222873
991.638	0.02189952
991.799	0.02201806
991.96	0.02261663
992.121	0.02296348
992.283	0.02278927
992.444	0.02288373
992.605	0.0228764
992.766	0.02294176
992.927	0.02275086
993.088	0.02235241
993.249	0.02222365
993.41	0.022171
993.572	0.0220526
993.733	0.02264947
993.894	0.0224016
994.055	0.02241098
994.216	0.02265001
994.376	0.02284017
994.537	0.02290744
994.698	0.02304979
994.859	0.02270001
995.02	0.02318306
995.181	0.02312507
995.342	0.0231011
995.503	0.02312757
995.663	0.0233911
995.824	0.02325448
995.985	0.0236697
996.146	0.0235238
996.306	0.02377821
996.467	0.02354413
996.628	0.02321368
996.788	0.02275804
996.949	0.02279743
997.11	0.02270192
997.27	0.02245588
997.431	0.02245623
997.591	0.02236038
997.752	0.02216034
997.912	0.02258716
998.073	0.022205
998.233	0.02204788
998.394	0.02207132
998.554	0.02227645
998.714	0.02279019
998.875	0.02307929
999.035	0.02245261
999.196	0.02305033
999.356	0.02285689
999.516	0.02321568
999.676	0.02300083
999.837	0.02252579
999.997	0.02247653
1000.157	0.02302919
1000.317	0.02302592
1000.477	0.02295858
1000.638	0.02239767
1000.798	0.02219383
1000.958	0.02268617
1001.118	0.0228191
1001.278	0.02262808
1001.438	0.02233214
1001.598	0.02241176
1001.758	0.0233294
1001.918	0.02342377
1002.078	0.02325745
1002.238	0.02296702
1002.398	0.02307621
1002.558	0.02302833
1002.718	0.02280045
1002.878	0.02190077
1003.037	0.02195731
1003.197	0.02171478
1003.357	0.0220069
1003.517	0.02245539
1003.677	0.02233301
1003.836	0.02261004
1003.996	0.02308768
1004.156	0.02328922
1004.315	0.02355228
1004.475	0.02375249
1004.635	0.02367274
1004.794	0.02394547
1004.954	0.02445287
1005.114	0.02441875
1005.273	0.024049
1005.433	0.02412631
1005.592	0.02404664
1005.752	0.02332681
1005.911	0.02298242
1006.071	0.02227298
1006.23	0.02230593
1006.389	0.02293074
1006.549	0.021977
1006.708	0.02178392
1006.868	0.02208396
1007.027	0.02177015
1007.186	0.02206704
1007.345	0.02166074
1007.505	0.02063738
1007.664	0.02132062
1007.823	0.02145837
1007.982	0.02145815
1008.142	0.02191699
1008.301	0.02194906
1008.46	0.02207182
1008.619	0.02300209
1008.778	0.02393319
1008.937	0.02342025
1009.096	0.02325964
1009.255	0.02308678
1009.414	0.02279345
1009.573	0.02310769
1009.732	0.02330147
1009.891	0.02253055
1010.05	0.02357925
1010.209	0.02395517
1010.368	0.02453525
1010.527	0.02371984
1010.686	0.02359975
1010.845	0.02280535
1011.003	0.02239586
1011.162	0.02177532
1011.321	0.02172165
1011.48	0.02247838
1011.638	0.0234162
1011.797	0.02339012
1011.956	0.02451018
1012.115	0.02486716
1012.273	0.02456068
1012.432	0.02451436
1012.59	0.02334482
1012.749	0.02411059
1012.908	0.02439274
1013.066	0.02361218
1013.225	0.02306936
1013.383	0.0233923
1013.542	0.02397936
1013.7	0.02460758
1013.859	0.0239807
1014.017	0.02423013
1014.175	0.02466439
1014.334	0.02509526
1014.492	0.02546773
1014.65	0.02537166
1014.809	0.02563883
1014.967	0.0260983
1015.125	0.02639439
1015.284	0.0261739
1015.442	0.02640695
1015.6	0.02614905
1015.758	0.02486188
1015.916	0.02407509
1016.075	0.02308895
1016.233	0.02268686
1016.391	0.02262811
1016.549	0.0222991
1016.707	0.0230429
1016.865	0.0246644
1017.023	0.02490996
1017.181	0.02473328
1017.339	0.02385816
1017.497	0.02458528
1017.655	0.02411035
1017.813	0.02347816
1017.971	0.02276698
1018.129	0.02403125
1018.286	0.02534958
1018.444	0.02617752
1018.602	0.02574575
1018.76	0.02696766
1018.918	0.0274682
1019.075	0.02833939
1019.233	0.02770152
1019.391	0.02797039
1019.549	0.02817701
1019.706	0.02815845
1019.864	0.0286232
1020.022	0.02970818
1020.179	0.02921204
1020.337	0.02913205
1020.494	0.02850411
1020.652	0.02853944
1020.809	0.03007354
1020.967	0.02917934
1021.124	0.02894095
1021.282	0.02938169
1021.439	0.02938645
1021.597	0.02921899
1021.754	0.03030067
1021.911	0.02940746
1022.069	0.03043946
1022.226	0.0296229
1022.384	0.02986968
1022.541	0.03082561
1022.698	0.03222498
1022.855	0.03198048
1023.013	0.03229455
1023.17	0.03288449
1023.327	0.03351936
1023.484	0.03395821
1023.641	0.0332331
1023.798	0.03436507
1023.956	0.03407313
1024.113	0.03345283
1024.27	0.03382894
1024.427	0.03452606
1024.584	0.03438352
1024.741	0.03450849
1024.898	0.03238912
1025.055	0.03157308
1025.212	0.03131056
1025.369	0.02953557
1025.525	0.02925318
1025.682	0.02992291
1025.839	0.03069595
1025.996	0.03218957
1026.153	0.03439457
1026.31	0.03427689
1026.466	0.03481756
1026.623	0.03546976
1026.78	0.03489794
1026.937	0.03481541
1027.093	0.0340292
1027.25	0.03198084
1027.407	0.0325604
1027.563	0.03474296
1027.72	0.03534539
1027.876	0.03521784
1028.033	0.03553641
1028.19	0.03659253
1028.346	0.03872661
1028.503	0.04007583
1028.659	0.03807351
1028.816	0.03856263
1028.972	0.0378991
1029.128	0.03788655
1029.285	0.03764433
1029.441	0.03907171
1029.598	0.03841806
1029.754	0.04241047
1029.91	0.03811332
1030.067	0.0394961
1030.223	0.03936299
1030.379	0.03927983
1030.535	0.03928375
1030.691	0.04100625
1030.848	0.03810453
1031.004	0.03903582
1031.16	0.04111678
1031.316	0.04323672
1031.472	0.04411423
1031.628	0.04405428
1031.784	0.04302408
1031.94	0.04370985
1032.096	0.04483949
1032.252	0.04369083
1032.408	0.04143709
1032.564	0.04064306
1032.72	0.0392476
1032.876	0.03908998
1033.032	0.03982405
1033.188	0.04032095
1033.344	0.04077445
1033.5	0.04308559
1033.655	0.04375442
1033.811	0.04307323
1033.967	0.04494729
