Data from 1_mm_pl_10pc_Absorbance__0__17-20-28-250.txt Node

Date: Wed Mar 08 17:20:28 CET 2023
User: Ange
Spectrometer: FLMT08341
Trigger mode: 0
Integration Time (sec): 1.000000E-2
Scans to average: 400
Electric dark correction enabled: true
Nonlinearity correction enabled: false
Boxcar width: 3
XAxis mode: Wavelengths
Number of Pixels in Spectrum: 3648
>>>>>Begin Spectral Data<<<<<
345.271	0.06609232
345.487	0.05652835
345.704	0.05386694
345.921	0.05702537
346.137	0.06218687
346.354	0.04248259
346.571	0.04563474
346.787	0.11152518
347.004	-0.05058768
347.22	-0.06743539
347.437	0.08260767
347.653	0.34103018
347.87	-0.39947867
348.086	-0.53934961
348.303	0.00555191
348.519	0.3004637
348.736	0.27711336
348.952	0.28268508
349.169	0.2901429
349.385	0.30583914
349.601	0.30006468
349.818	0.29380192
350.034	0.29038692
350.251	0.29086866
350.467	0.29385174
350.683	0.28544556
350.9	0.28364939
351.116	0.28420947
351.332	0.28422665
351.549	0.29515274
351.765	0.30362557
351.981	0.31022287
352.197	0.32468848
352.414	0.33831656
352.63	0.34688854
352.846	0.35733904
353.062	0.35289656
353.278	0.34819214
353.495	0.35486723
353.711	0.35913061
353.927	0.3604214
354.143	0.35872803
354.359	0.35504518
354.575	0.3524103
354.792	0.36181973
355.008	0.35237118
355.224	0.34775952
355.44	0.3423307
355.656	0.34321225
355.872	0.34926962
356.088	0.36790593
356.304	0.36904512
356.52	0.37704283
356.736	0.38055087
356.952	0.38620595
357.168	0.38880594
357.384	0.39262213
357.6	0.38305541
357.816	0.38966574
358.032	0.39612447
358.248	0.40856704
358.464	0.41219139
358.679	0.42122938
358.895	0.42328639
359.111	0.43452446
359.327	0.42972751
359.543	0.43141154
359.759	0.43819387
359.974	0.43943343
360.19	0.43667273
360.406	0.43770274
360.622	0.43175947
360.838	0.43111174
361.053	0.43646312
361.269	0.43672507
361.485	0.43924212
361.701	0.44408916
361.916	0.44202677
362.132	0.44560273
362.348	0.45070378
362.563	0.45229118
362.779	0.44739511
362.995	0.45397764
363.21	0.46002449
363.426	0.46501044
363.641	0.46925895
363.857	0.47250629
364.073	0.47150571
364.288	0.46985402
364.504	0.47545179
364.719	0.47370721
364.935	0.47501214
365.15	0.47642691
365.366	0.48030839
365.581	0.48707898
365.797	0.49280834
366.012	0.48941371
366.228	0.49031615
366.443	0.4978416
366.658	0.50061153
366.874	0.49856091
367.089	0.50578845
367.305	0.5101589
367.52	0.51297149
367.735	0.51392326
367.951	0.51197832
368.166	0.5154447
368.381	0.52711358
368.597	0.52141242
368.812	0.52534068
369.027	0.53028086
369.243	0.53416115
369.458	0.5467092
369.673	0.5491608
369.888	0.54789782
370.104	0.54711198
370.319	0.54961894
370.534	0.54761679
370.749	0.54726011
370.964	0.54634738
371.179	0.54759829
371.395	0.54576072
371.61	0.5527984
371.825	0.54893215
372.04	0.55265201
372.255	0.55452088
372.47	0.5506332
372.685	0.54832978
372.9	0.54876979
373.115	0.54658255
373.33	0.55190774
373.545	0.55394647
373.76	0.55834448
373.975	0.55998498
374.19	0.56074036
374.405	0.56593926
374.62	0.57631729
374.835	0.58434026
375.05	0.58630395
375.265	0.58939367
375.48	0.59437034
375.695	0.60750594
375.91	0.60684354
376.125	0.59796455
376.339	0.59019658
376.554	0.5931163
376.769	0.59464714
376.984	0.59388734
377.199	0.59554429
377.414	0.59690189
377.628	0.605994
377.843	0.61613773
378.058	0.61815499
378.273	0.62357157
378.487	0.6290758
378.702	0.63086467
378.917	0.634645
379.131	0.63239472
379.346	0.62487723
379.561	0.62458959
379.775	0.62264825
379.99	0.6191746
380.205	0.61436545
380.419	0.61217181
380.634	0.60869919
380.848	0.6171497
381.063	0.62041308
381.278	0.62684105
381.492	0.6259003
381.707	0.63277431
381.921	0.63569594
382.136	0.64757672
382.35	0.6449497
382.565	0.64303762
382.779	0.64398575
382.994	0.65018467
383.208	0.64828082
383.422	0.6542255
383.637	0.65251157
383.851	0.65982579
384.066	0.66625654
384.28	0.66796896
384.494	0.67124553
384.709	0.67633169
384.923	0.67784772
385.137	0.67560185
385.352	0.67620313
385.566	0.67922171
385.78	0.68198217
385.995	0.68011073
386.209	0.67932053
386.423	0.685003
386.637	0.69185826
386.852	0.68843441
387.066	0.6875847
387.28	0.68326748
387.494	0.6912478
387.708	0.69444483
387.923	0.69223907
388.137	0.69578446
388.351	0.70196251
388.565	0.70719321
388.779	0.71212315
388.993	0.71972824
389.207	0.72241963
389.421	0.72659933
389.635	0.72528095
389.85	0.72492588
390.064	0.72649726
390.278	0.7294167
390.492	0.72851593
390.706	0.73071372
390.92	0.73159416
391.134	0.73850664
391.348	0.74827454
391.561	0.74688387
391.775	0.74722107
391.989	0.74324638
392.203	0.74694897
392.417	0.75139893
392.631	0.75573528
392.845	0.75148417
393.059	0.75888823
393.273	0.7604908
393.486	0.7599673
393.7	0.75603205
393.914	0.75915743
394.128	0.75649455
394.342	0.75637231
394.555	0.74962565
394.769	0.75077549
394.983	0.75529261
395.197	0.76091884
395.41	0.76045514
395.624	0.76406871
395.838	0.76597881
396.051	0.77857818
396.265	0.77883467
396.479	0.78217882
396.692	0.78313049
396.906	0.78169794
397.12	0.78062452
397.333	0.78605126
397.547	0.78227199
397.76	0.78742012
397.974	0.78853393
398.187	0.79209345
398.401	0.79756113
398.614	0.8000361
398.828	0.80099894
399.041	0.80367461
399.255	0.8037867
399.468	0.8049443
399.682	0.80610641
399.895	0.80880772
400.109	0.80982448
400.322	0.80870422
400.536	0.80531442
400.749	0.81126976
400.962	0.81259737
401.176	0.81168893
401.389	0.8104972
401.602	0.80537044
401.816	0.80903558
402.029	0.81476268
402.242	0.8122598
402.456	0.81214119
402.669	0.80940823
402.882	0.80449836
403.095	0.81286408
403.309	0.81260689
403.522	0.81275196
403.735	0.81156571
403.948	0.81324051
404.161	0.82382327
404.375	0.82895053
404.588	0.82924337
404.801	0.83138976
405.014	0.82929838
405.227	0.8356589
405.44	0.83772557
405.653	0.83734286
405.866	0.83557857
406.079	0.83415124
406.293	0.83346092
406.506	0.83598847
406.719	0.83385005
406.932	0.83290569
407.145	0.82872904
407.358	0.83544409
407.571	0.83361935
407.784	0.83479978
407.996	0.83591747
408.209	0.83336854
408.422	0.83226259
408.635	0.83415087
408.848	0.83305362
409.061	0.8307837
409.274	0.83102867
409.487	0.82931987
409.7	0.83041174
409.912	0.83176468
410.125	0.83238447
410.338	0.832249
410.551	0.83374353
410.764	0.83360435
410.976	0.83390977
411.189	0.83432991
411.402	0.83145701
411.615	0.83212082
411.827	0.83240338
412.04	0.83400683
412.253	0.8316091
412.465	0.83038887
412.678	0.83014278
412.891	0.83394007
413.103	0.8276929
413.316	0.82595214
413.529	0.82812398
413.741	0.83138014
413.954	0.83283049
414.166	0.8323946
414.379	0.83074007
414.591	0.83517673
414.804	0.83331359
415.016	0.8316895
415.229	0.8292818
415.441	0.82704896
415.654	0.82843121
415.866	0.82846984
416.079	0.82842578
416.291	0.82697814
416.504	0.8281635
416.716	0.82707199
416.928	0.8275667
417.141	0.82449296
417.353	0.82489934
417.566	0.81934769
417.778	0.81984852
417.99	0.81392701
418.203	0.8114657
418.415	0.80948251
418.627	0.80919288
418.839	0.80638927
419.052	0.8105595
419.264	0.80994049
419.476	0.81106818
419.688	0.81141377
419.901	0.81068442
420.113	0.80865618
420.325	0.80674345
420.537	0.80183547
420.749	0.80201269
420.961	0.80150991
421.174	0.79931102
421.386	0.7972603
421.598	0.7955324
421.81	0.79365499
422.022	0.79276665
422.234	0.78971452
422.446	0.78663844
422.658	0.78546141
422.87	0.78437289
423.082	0.78367562
423.294	0.78236999
423.506	0.78153994
423.718	0.77955679
423.93	0.77674988
424.142	0.77388847
424.354	0.77104086
424.566	0.76848981
424.778	0.76748825
424.99	0.76517943
425.202	0.76257638
425.414	0.76227578
425.625	0.76236972
425.837	0.75930585
426.049	0.75815465
426.261	0.75462788
426.473	0.75073602
426.684	0.74905906
426.896	0.74775277
427.108	0.74363821
427.32	0.74352489
427.531	0.74060076
427.743	0.73898753
427.955	0.73998176
428.167	0.73713626
428.378	0.73369172
428.59	0.7322844
428.802	0.72986586
429.013	0.72690885
429.225	0.72425403
429.436	0.72070514
429.648	0.71967664
429.86	0.71813592
430.071	0.71628409
430.283	0.71402303
430.494	0.71188379
430.706	0.70996141
430.917	0.70699835
431.129	0.70459325
431.34	0.7017252
431.552	0.69928832
431.763	0.69588056
431.975	0.69454993
432.186	0.69073523
432.398	0.68828666
432.609	0.68278375
432.821	0.68029323
433.032	0.67759559
433.243	0.67481126
433.455	0.67171798
433.666	0.66988618
433.877	0.66825461
434.089	0.66610663
434.3	0.66195591
434.511	0.65757234
434.723	0.65460929
434.934	0.65031312
435.145	0.6461723
435.356	0.64175862
435.568	0.63907035
435.779	0.63672562
435.99	0.63309634
436.201	0.63004673
436.412	0.62695944
436.624	0.62545298
436.835	0.62315147
437.046	0.62121566
437.257	0.61837
437.468	0.61767619
437.679	0.61565739
437.89	0.61344656
438.101	0.61067456
438.312	0.60784147
438.523	0.6045582
438.734	0.60187348
438.945	0.59830923
439.156	0.59431945
439.367	0.59174471
439.578	0.58892064
439.789	0.58507486
440	0.58242485
440.211	0.57890562
440.422	0.57595678
440.633	0.5737781
440.844	0.56971509
441.055	0.5661653
441.266	0.56403617
441.477	0.56019032
441.687	0.55743535
441.898	0.55441972
442.109	0.55103681
442.32	0.54811227
442.531	0.54416903
442.741	0.53962879
442.952	0.53658002
443.163	0.53348606
443.374	0.52958853
443.584	0.52587033
443.795	0.5230534
444.006	0.52034064
444.216	0.51768613
444.427	0.51402992
444.638	0.5102808
444.848	0.50716783
445.059	0.50423235
445.27	0.50059763
445.48	0.49696086
445.691	0.49404615
445.901	0.49134059
446.112	0.48853333
446.323	0.48529966
446.533	0.48176301
446.744	0.47828012
446.954	0.47508921
447.165	0.47177242
447.375	0.46911206
447.586	0.46611884
447.796	0.46332807
448.006	0.4604322
448.217	0.45805985
448.427	0.45519063
448.638	0.45170237
448.848	0.44816471
449.058	0.44474568
449.269	0.4414702
449.479	0.43843423
449.689	0.43508208
449.9	0.4321967
450.11	0.42920086
450.32	0.42656285
450.531	0.42339466
450.741	0.42035741
450.951	0.41740825
451.161	0.41444757
451.372	0.41129758
451.582	0.4090794
451.792	0.40573127
452.002	0.40271912
452.212	0.39963343
452.422	0.39679681
452.633	0.39361977
452.843	0.39118239
453.053	0.3873442
453.263	0.38455204
453.473	0.38181904
453.683	0.37928739
453.893	0.37601852
454.103	0.37378173
454.313	0.37074212
454.523	0.36826475
454.733	0.36553299
454.943	0.36302215
455.153	0.36030872
455.363	0.3577551
455.573	0.35475847
455.783	0.35218125
455.993	0.34945799
456.203	0.34712962
456.413	0.34445738
456.623	0.3417323
456.833	0.33956329
457.042	0.33700509
457.252	0.33448427
457.462	0.33178416
457.672	0.3291111
457.882	0.32668069
458.091	0.32426377
458.301	0.32139051
458.511	0.31879635
458.721	0.31626831
458.931	0.31386552
459.14	0.31153586
459.35	0.30922039
459.56	0.30685357
459.769	0.30470981
459.979	0.30230798
460.189	0.29998771
460.398	0.29742894
460.608	0.29517928
460.817	0.29283323
461.027	0.29039352
461.237	0.28796712
461.446	0.28569387
461.656	0.28354832
461.865	0.28149706
462.075	0.27928571
462.284	0.2772998
462.494	0.27516789
462.703	0.27295181
462.913	0.2710176
463.122	0.26884459
463.332	0.26681685
463.541	0.26487703
463.751	0.26271724
463.96	0.2608122
464.169	0.25899076
464.379	0.25721048
464.588	0.25534174
464.797	0.25345588
465.007	0.25156629
465.216	0.24975149
465.425	0.2480903
465.635	0.246522
465.844	0.24468259
466.053	0.24292014
466.263	0.24134211
466.472	0.23956925
466.681	0.23791367
466.89	0.23616628
467.099	0.23429066
467.309	0.2326316
467.518	0.23120236
467.727	0.22957368
467.936	0.2279772
468.145	0.22653715
468.354	0.22510781
468.563	0.22359456
468.772	0.22193602
468.982	0.2202858
469.191	0.218965
469.4	0.21747146
469.609	0.21595707
469.818	0.21452537
470.027	0.21320488
470.236	0.21185832
470.445	0.21057378
470.654	0.20896102
470.863	0.20761468
471.072	0.20629363
471.28	0.20486192
471.489	0.20360587
471.698	0.20239525
471.907	0.20121203
472.116	0.20016524
472.325	0.19892406
472.534	0.19788709
472.743	0.19677934
472.951	0.1956985
473.16	0.19466605
473.369	0.19356981
473.578	0.19246905
473.786	0.19149038
473.995	0.19029526
474.204	0.18933566
474.413	0.18816063
474.621	0.18711732
474.83	0.18618157
475.039	0.18518904
475.247	0.18418249
475.456	0.18327453
475.665	0.18225899
475.873	0.18135038
476.082	0.18025144
476.291	0.17927363
476.499	0.17857931
476.708	0.17765335
476.916	0.17681947
477.125	0.17605376
477.333	0.17526939
477.542	0.17468486
477.75	0.17386126
477.959	0.17303164
478.167	0.17244995
478.376	0.17168572
478.584	0.17094226
478.793	0.17023679
479.001	0.16960151
479.209	0.16895377
479.418	0.16827665
479.626	0.16769654
479.834	0.16713651
480.043	0.16655768
480.251	0.16603219
480.459	0.16540589
480.668	0.16494109
480.876	0.16441094
481.084	0.16384143
481.293	0.16326657
481.501	0.16278377
481.709	0.16234614
481.917	0.16175055
482.125	0.16134372
482.334	0.16087221
482.542	0.1604243
482.75	0.16003797
482.958	0.15966395
483.166	0.15929918
483.374	0.15905827
483.583	0.15866864
483.791	0.15833536
483.999	0.15796729
484.207	0.15763908
484.415	0.15731734
484.623	0.1569223
484.831	0.1565543
485.039	0.15624804
485.247	0.15590299
485.455	0.15556637
485.663	0.15528749
485.871	0.15502474
486.079	0.15470757
486.287	0.15450513
486.495	0.15431181
486.702	0.15417233
486.91	0.15397141
487.118	0.15375693
487.326	0.15358106
487.534	0.15353577
487.742	0.15352631
487.95	0.15338072
488.157	0.15328032
488.365	0.15329546
488.573	0.15330437
488.781	0.15332865
488.988	0.15329154
489.196	0.15316715
489.404	0.15319943
489.612	0.1531989
489.819	0.1532388
490.027	0.15322862
490.235	0.15312944
490.442	0.15309087
490.65	0.15304158
490.857	0.15310962
491.065	0.1532008
491.273	0.15323632
491.48	0.153373
491.688	0.15351137
491.895	0.15369534
492.103	0.1538689
492.31	0.15391818
492.518	0.15393832
492.725	0.15401872
492.933	0.15403955
493.14	0.15406613
493.348	0.1541124
493.555	0.15418429
493.763	0.1542148
493.97	0.15441811
494.177	0.1545795
494.385	0.15477009
494.592	0.15504021
494.8	0.15523868
495.007	0.15551729
495.214	0.15579765
495.422	0.1560702
495.629	0.1563213
495.836	0.1565905
496.043	0.15688948
496.251	0.1572014
496.458	0.15743806
496.665	0.15772069
496.872	0.15793151
497.08	0.15816268
497.287	0.15841515
497.494	0.15869161
497.701	0.15902462
497.908	0.15943884
498.115	0.15979201
498.322	0.16010905
498.53	0.16051387
498.737	0.16086327
498.944	0.16118874
499.151	0.16149073
499.358	0.16186668
499.565	0.16227283
499.772	0.16271684
499.979	0.163204
500.186	0.16370311
500.393	0.16410609
500.6	0.16451842
500.807	0.16489349
501.014	0.16535977
501.221	0.16576577
501.427	0.16610327
501.634	0.16653414
501.841	0.16698492
502.048	0.16742599
502.255	0.16782572
502.462	0.16821757
502.669	0.16868148
502.875	0.16914897
503.082	0.16956069
503.289	0.17000856
503.496	0.17056095
503.702	0.17108691
503.909	0.17163184
504.116	0.17223644
504.323	0.17279096
504.529	0.17335338
504.736	0.17392858
504.943	0.17444873
505.149	0.17506965
505.356	0.17566797
505.563	0.17620141
505.769	0.17684943
505.976	0.17744776
506.182	0.17814926
506.389	0.17876449
506.595	0.17935219
506.802	0.17997146
507.008	0.18057493
507.215	0.18116025
507.421	0.1818008
507.628	0.18239255
507.834	0.18309118
508.041	0.18372631
508.247	0.18433344
508.454	0.18500674
508.66	0.18563195
508.866	0.18619219
509.073	0.18684957
509.279	0.18746232
509.486	0.18806952
509.692	0.18873362
509.898	0.18941934
510.105	0.19011344
510.311	0.19094365
510.517	0.19167899
510.723	0.19239008
510.93	0.19309145
511.136	0.19380418
511.342	0.19452644
511.548	0.19529399
511.754	0.19591727
511.961	0.19654197
512.167	0.19729892
512.373	0.198096
512.579	0.19891587
512.785	0.19969277
512.991	0.20045519
513.197	0.20132651
513.404	0.20223851
513.61	0.2030481
513.816	0.20380867
514.022	0.20451319
514.228	0.20526326
514.434	0.2059632
514.64	0.20665251
514.846	0.20732537
515.052	0.20800318
515.258	0.20880645
515.464	0.20966095
515.669	0.21051437
515.875	0.21145145
516.081	0.21244574
516.287	0.21346204
516.493	0.2145186
516.699	0.21538747
516.905	0.21625681
517.111	0.21709467
517.316	0.2179022
517.522	0.21868598
517.728	0.21947326
517.934	0.22023541
518.139	0.22113175
518.345	0.22198501
518.551	0.22287637
518.757	0.22367158
518.962	0.22450608
519.168	0.2254248
519.374	0.22631441
519.579	0.22719531
519.785	0.22820535
519.991	0.22918925
520.196	0.2303049
520.402	0.23131332
520.607	0.23227344
520.813	0.23332448
521.018	0.23432722
521.224	0.23515353
521.429	0.23603922
521.635	0.23689671
521.84	0.23772545
522.046	0.23862283
522.251	0.23945945
522.457	0.24032024
522.662	0.2413435
522.868	0.24235948
523.073	0.24332063
523.279	0.2444769
523.484	0.24548779
523.689	0.2465562
523.895	0.24762455
524.1	0.24870296
524.305	0.24970938
524.511	0.2507389
524.716	0.25172964
524.921	0.25277691
525.126	0.25376529
525.332	0.25482964
525.537	0.25572884
525.742	0.25669143
525.947	0.2577229
526.153	0.2587259
526.358	0.25971385
526.563	0.26072943
526.768	0.26172494
526.973	0.26285602
527.178	0.26399824
527.383	0.26504104
527.588	0.2660661
527.794	0.26707763
527.999	0.26821782
528.204	0.26927864
528.409	0.27025873
528.614	0.27141038
528.819	0.27252938
529.024	0.27352259
529.229	0.27455397
529.434	0.27562803
529.639	0.27675898
529.843	0.27785296
530.048	0.27885149
530.253	0.27993284
530.458	0.28123454
530.663	0.28244915
530.868	0.28355338
531.073	0.28459454
531.278	0.28572016
531.482	0.28680756
531.687	0.2878958
531.892	0.28889626
532.097	0.28999766
532.302	0.29112455
532.506	0.2922467
532.711	0.29332783
532.916	0.29449489
533.12	0.29572346
533.325	0.2968922
533.53	0.2980721
533.734	0.29924335
533.939	0.30045066
534.144	0.30170724
534.348	0.30285726
534.553	0.3040202
534.757	0.30513895
534.962	0.30626309
535.167	0.30743487
535.371	0.3086056
535.576	0.3097906
535.78	0.31095044
535.985	0.31211958
536.189	0.31335882
536.394	0.31457157
536.598	0.31581165
536.803	0.31703246
537.007	0.31820054
537.211	0.31947439
537.416	0.32060053
537.62	0.32173793
537.825	0.32289746
538.029	0.32411898
538.233	0.32531146
538.438	0.3265452
538.642	0.32770064
538.846	0.32898098
539.05	0.3302426
539.255	0.33147683
539.459	0.33266892
539.663	0.33389924
539.867	0.33513115
540.072	0.33636902
540.276	0.33764504
540.48	0.33896808
540.684	0.34024431
540.888	0.3416246
541.092	0.34284765
541.297	0.34414356
541.501	0.34538747
541.705	0.34662039
541.909	0.3476912
542.113	0.34878341
542.317	0.34993436
542.521	0.35126849
542.725	0.35257561
542.929	0.35390467
543.133	0.3551952
543.337	0.35664954
543.541	0.35804944
543.745	0.35926003
543.949	0.36048382
544.153	0.36160547
544.357	0.36279773
544.56	0.3640395
544.764	0.36528924
544.968	0.36650851
545.172	0.36772634
545.376	0.36902985
545.58	0.37041562
545.783	0.3717602
545.987	0.37296257
546.191	0.37411681
546.395	0.37545117
546.598	0.37686454
546.802	0.37821556
547.006	0.37948888
547.21	0.3805867
547.413	0.38190645
547.617	0.38328808
547.821	0.38460981
548.024	0.38591931
548.228	0.38712389
548.431	0.38841168
548.635	0.38987509
548.839	0.39119992
549.042	0.39249548
549.246	0.39372114
549.449	0.39497251
549.653	0.39628547
549.856	0.3975808
550.06	0.39880567
550.263	0.40018772
550.467	0.40150288
550.67	0.40283907
550.874	0.40409233
551.077	0.40542684
551.28	0.40674264
551.484	0.40801551
551.687	0.40916908
551.891	0.41043898
552.094	0.41172542
552.297	0.41314763
552.501	0.41444545
552.704	0.41579444
552.907	0.41709233
553.11	0.41848586
553.314	0.41980662
553.517	0.42102532
553.72	0.42223091
553.923	0.42355193
554.127	0.42490657
554.33	0.42617436
554.533	0.42741212
554.736	0.42859186
554.939	0.4299163
555.142	0.43119183
555.345	0.43243841
555.549	0.43372489
555.752	0.43497546
555.955	0.4362125
556.158	0.43759171
556.361	0.43885043
556.564	0.4401271
556.767	0.44147958
556.97	0.44274923
557.173	0.44418055
557.376	0.44556344
557.579	0.44692513
557.782	0.44831266
557.984	0.44968666
558.187	0.45095971
558.39	0.45214781
558.593	0.45350627
558.796	0.45483887
558.999	0.45596808
559.202	0.45720595
559.404	0.45836847
559.607	0.45959201
559.81	0.46094689
560.013	0.46206694
560.216	0.46333983
560.418	0.46478853
560.621	0.46612577
560.824	0.46756644
561.026	0.46896725
561.229	0.47021651
561.432	0.471516
561.634	0.47272519
561.837	0.47388429
562.04	0.47512011
562.242	0.47631747
562.445	0.47738923
562.647	0.47867074
562.85	0.47982807
563.053	0.48108547
563.255	0.48229919
563.458	0.48349133
563.66	0.48468781
563.863	0.48605132
564.065	0.48733801
564.268	0.48862317
564.47	0.48983944
564.672	0.49105724
564.875	0.49229991
565.077	0.49349295
565.28	0.49469302
565.482	0.4959053
565.684	0.49714998
565.887	0.49838417
566.089	0.49973682
566.291	0.50098453
566.494	0.50231545
566.696	0.50347906
566.898	0.50471387
567.1	0.50597174
567.303	0.50722538
567.505	0.5083643
567.707	0.50944641
567.909	0.51055344
568.111	0.51167429
568.314	0.51282876
568.516	0.51400843
568.718	0.51520967
568.92	0.51639813
569.122	0.51765391
569.324	0.51886217
569.526	0.52001698
569.728	0.52116296
569.93	0.52223633
570.132	0.52333253
570.334	0.52447588
570.536	0.52553936
570.738	0.52657979
570.94	0.52774717
571.142	0.52894119
571.344	0.53001852
571.546	0.53106575
571.748	0.53215468
571.95	0.53327505
572.152	0.53452351
572.354	0.53570725
572.555	0.53693189
572.757	0.53830529
572.959	0.53951007
573.161	0.54060444
573.363	0.5417939
573.564	0.54298637
573.766	0.54397244
573.968	0.54498495
574.17	0.54581445
574.371	0.54687012
574.573	0.54792883
574.775	0.54898865
574.976	0.54996306
575.178	0.55101461
575.38	0.55195544
575.581	0.55298257
575.783	0.55405211
575.985	0.55511836
576.186	0.55612247
576.388	0.55709131
576.589	0.55808558
576.791	0.55922884
576.992	0.56037821
577.194	0.56139687
577.395	0.56235014
577.597	0.56332068
577.798	0.56443016
578	0.56557918
578.201	0.56662536
578.402	0.56760761
578.604	0.56849335
578.805	0.5695541
579.007	0.57066586
579.208	0.57166465
579.409	0.5724931
579.611	0.57325659
579.812	0.57424241
580.013	0.57528686
580.215	0.57607682
580.416	0.57694576
580.617	0.57782541
580.818	0.5788702
581.019	0.57981765
581.221	0.58077149
581.422	0.58172238
581.623	0.58283043
581.824	0.5835908
582.025	0.58447029
582.226	0.58533668
582.428	0.5862039
582.629	0.58689242
582.83	0.5876495
583.031	0.58835814
583.232	0.58939907
583.433	0.59027612
583.634	0.59099322
583.835	0.59190303
584.036	0.59280441
584.237	0.59360828
584.438	0.59450782
584.639	0.5951898
584.84	0.59593639
585.041	0.59672178
585.242	0.59744046
585.442	0.59828631
585.643	0.59909711
585.844	0.59991303
586.045	0.60078592
586.246	0.60153268
586.447	0.6022916
586.647	0.60295096
586.848	0.60356006
587.049	0.60416994
587.25	0.60473779
587.45	0.60531258
587.651	0.60602434
587.852	0.60673367
588.053	0.60765649
588.253	0.60837957
588.454	0.60926144
588.655	0.61002676
588.855	0.61067005
589.056	0.61132011
589.256	0.61206738
589.457	0.61263449
589.658	0.61337363
589.858	0.61393612
590.059	0.61460691
590.259	0.61536918
590.46	0.61597852
590.66	0.61656946
590.861	0.61713597
591.061	0.6176482
591.262	0.61830584
591.462	0.61886173
591.662	0.61933198
591.863	0.61981839
592.063	0.62035111
592.264	0.62086802
592.464	0.62145945
592.664	0.62199286
592.865	0.62259408
593.065	0.62308637
593.265	0.62377314
593.465	0.62432029
593.666	0.62483829
593.866	0.62537089
594.066	0.62578811
594.266	0.62618544
594.467	0.62660691
594.667	0.62699586
594.867	0.62746586
595.067	0.62787852
595.267	0.62825035
595.467	0.62866133
595.668	0.62902951
595.868	0.62958433
596.068	0.62996684
596.268	0.63025433
596.468	0.630722
596.668	0.6311869
596.868	0.63156739
597.068	0.6321119
597.268	0.63253765
597.468	0.6329307
597.668	0.63340687
597.868	0.63372301
598.068	0.63406936
598.268	0.63446827
598.467	0.63477906
598.667	0.6350443
598.867	0.63531222
599.067	0.63570593
599.267	0.63599664
599.467	0.63623475
599.667	0.63638803
599.866	0.63666215
600.066	0.6370404
600.266	0.63730819
600.466	0.63748868
600.665	0.63780087
600.865	0.6380379
601.065	0.63849798
601.264	0.63869941
601.464	0.63883752
601.664	0.63913343
601.863	0.63924984
602.063	0.63943901
602.263	0.63945024
602.462	0.63951757
602.662	0.63967223
602.861	0.63980407
603.061	0.64000909
603.26	0.64026492
603.46	0.64036819
603.659	0.6407709
603.859	0.64101862
604.058	0.64114089
604.258	0.64141504
604.457	0.64162585
604.657	0.64170893
604.856	0.64165098
605.056	0.64166295
605.255	0.64162185
605.454	0.64171473
605.654	0.64163194
605.853	0.64169183
606.052	0.6417127
606.252	0.64192732
606.451	0.64208093
606.65	0.64226591
606.849	0.64220446
607.049	0.64225593
607.248	0.6421008
607.447	0.64204305
607.646	0.64219748
607.845	0.64212702
608.045	0.64190609
608.244	0.64201311
608.443	0.64191382
608.642	0.64192107
608.841	0.64187887
609.04	0.64163
609.239	0.64167425
609.438	0.64161652
609.637	0.64154278
609.836	0.64152077
610.035	0.64138785
610.234	0.64131156
610.433	0.64117352
610.632	0.64090514
610.831	0.64092605
611.03	0.64068267
611.229	0.64072611
611.428	0.64071869
611.627	0.64060394
611.826	0.64056275
612.025	0.64060693
612.224	0.64033217
612.422	0.6401988
612.621	0.63977296
612.82	0.6394647
613.019	0.63926903
613.218	0.63912924
613.416	0.63875398
613.615	0.63864448
613.814	0.63842053
614.012	0.63833513
614.211	0.6380381
614.41	0.63780705
614.608	0.6374833
614.807	0.6371607
615.006	0.6368259
615.204	0.63650982
615.403	0.63635816
615.602	0.63622352
615.8	0.63596027
615.999	0.63550536
616.197	0.63528597
616.396	0.63499176
616.594	0.63463489
616.793	0.63412066
616.991	0.6336993
617.19	0.6332775
617.388	0.63320021
617.586	0.63284198
617.785	0.63250582
617.983	0.6322662
618.182	0.63187175
618.38	0.63142401
618.578	0.63112143
618.777	0.63065341
618.975	0.63034602
619.173	0.62998157
619.372	0.6296248
619.57	0.6292495
619.768	0.62905637
619.966	0.62860868
620.165	0.62805543
620.363	0.62767761
620.561	0.62717246
620.759	0.62665378
620.957	0.62628289
621.155	0.62568804
621.354	0.62522546
621.552	0.62495044
621.75	0.62423788
621.948	0.62380649
622.146	0.62324334
622.344	0.62254619
622.542	0.62200764
622.74	0.62137572
622.938	0.62074454
623.136	0.62034131
623.334	0.61991634
623.532	0.61944715
623.73	0.61909525
623.928	0.61868787
624.126	0.61827819
624.324	0.61787941
624.522	0.61717909
624.719	0.6163994
624.917	0.61593436
625.115	0.61528322
625.313	0.61479278
625.511	0.61428041
625.708	0.61347564
625.906	0.61290349
626.104	0.61231257
626.302	0.61163159
626.499	0.61098369
626.697	0.61021431
626.895	0.60936355
627.093	0.60869059
627.29	0.60812115
627.488	0.60743023
627.686	0.60671899
627.883	0.60585862
628.081	0.60497321
628.278	0.60446174
628.476	0.60381511
628.673	0.60318944
628.871	0.6026892
629.068	0.60202858
629.266	0.60149191
629.463	0.60086978
629.661	0.60012481
629.858	0.59940338
630.056	0.59859816
630.253	0.59778032
630.451	0.5969995
630.648	0.59619893
630.845	0.5955051
631.043	0.59477178
631.24	0.59412869
631.438	0.59339485
631.635	0.5926655
631.832	0.59185944
632.029	0.59124073
632.227	0.59038802
632.424	0.58955632
632.621	0.58861089
632.818	0.58777245
633.016	0.58690404
633.213	0.58609157
633.41	0.58522012
633.607	0.58439576
633.804	0.58364727
634.001	0.58279819
634.199	0.58191173
634.396	0.58111238
634.593	0.58024414
634.79	0.57954359
634.987	0.5787041
635.184	0.57782369
635.381	0.57712116
635.578	0.5763444
635.775	0.57538942
635.972	0.57454016
636.169	0.57342641
636.366	0.57257456
636.563	0.57166786
636.76	0.57060829
636.957	0.5696513
637.153	0.56869604
637.35	0.56788762
637.547	0.56709775
637.744	0.56618199
637.941	0.56533761
638.138	0.5645053
638.334	0.5636511
638.531	0.56289824
638.728	0.56200145
638.925	0.56117339
639.121	0.56030825
639.318	0.55926748
639.515	0.55821331
639.711	0.55729594
639.908	0.55609757
640.105	0.55502965
640.301	0.55391796
640.498	0.55284034
640.695	0.55194937
640.891	0.55109064
641.088	0.55010283
641.284	0.54926283
641.481	0.54834827
641.677	0.54730598
641.874	0.54630925
642.07	0.54533577
642.267	0.54443378
642.463	0.54337554
642.66	0.54253815
642.856	0.54146173
643.053	0.54047483
643.249	0.53953884
643.445	0.53850919
643.642	0.5374476
643.838	0.5365331
644.034	0.53547691
644.231	0.53449339
644.427	0.53355274
644.623	0.53247531
644.82	0.53147478
645.016	0.53026139
645.212	0.52903341
645.408	0.52787638
645.604	0.52683731
645.801	0.52575704
645.997	0.52454691
646.193	0.52339233
646.389	0.52249318
646.585	0.52161876
646.781	0.5206105
646.977	0.51964472
647.173	0.51855192
647.37	0.5176306
647.566	0.51653892
647.762	0.51543479
647.958	0.51432142
648.154	0.51306643
648.35	0.51194431
648.546	0.5107867
648.742	0.50973811
648.937	0.50854319
649.133	0.5074552
649.329	0.50630296
649.525	0.50522551
649.721	0.50396385
649.917	0.50295204
650.113	0.50168493
650.309	0.50071511
650.504	0.49947261
650.7	0.49824794
650.896	0.4971515
651.092	0.4960909
651.287	0.49489314
651.483	0.49392395
651.679	0.4928008
651.875	0.49189427
652.07	0.49092127
652.266	0.48985304
652.462	0.48876075
652.657	0.48769511
652.853	0.48647881
653.048	0.485325
653.244	0.48404223
653.44	0.48291857
653.635	0.48169189
653.831	0.48057742
654.026	0.47949684
654.222	0.47832222
654.417	0.47720548
654.613	0.47599759
654.808	0.47458942
655.004	0.47338509
655.199	0.47207487
655.394	0.47081538
655.59	0.46963915
655.785	0.46824686
655.98	0.46702559
656.176	0.46587983
656.371	0.4648711
656.566	0.46376944
656.762	0.4625793
656.957	0.46150397
657.152	0.46052173
657.348	0.459492
657.543	0.45850054
657.738	0.45720622
657.933	0.45602736
658.128	0.45478496
658.324	0.45344746
658.519	0.45219893
658.714	0.45091541
658.909	0.4495481
659.104	0.44843686
659.299	0.44716911
659.494	0.44597711
659.689	0.4448345
659.884	0.44363007
660.079	0.44235532
660.274	0.44118078
660.469	0.4398643
660.664	0.43874351
660.859	0.43747109
661.054	0.4362246
661.249	0.43503419
661.444	0.43392627
661.639	0.43266936
661.834	0.43148158
662.029	0.4302414
662.224	0.42913403
662.418	0.42792075
662.613	0.42667556
662.808	0.42532786
663.003	0.42410555
663.198	0.42275437
663.392	0.42145823
663.587	0.42032973
663.782	0.41903805
663.977	0.41775807
664.171	0.41662293
664.366	0.41539244
664.561	0.41429014
664.755	0.41306402
664.95	0.41184013
665.144	0.41074162
665.339	0.40977551
665.534	0.40872174
665.728	0.40767913
665.923	0.40649402
666.117	0.40531629
666.312	0.40399265
666.506	0.40274157
666.701	0.4013468
666.895	0.40004175
667.09	0.3987165
667.284	0.39763382
667.479	0.39642163
667.673	0.39522666
667.867	0.39409555
668.062	0.39289887
668.256	0.39174515
668.45	0.39071142
668.645	0.3893874
668.839	0.3882175
669.033	0.38697779
669.228	0.38569179
669.422	0.38450912
669.616	0.38320262
669.81	0.38196315
670.004	0.38084801
670.199	0.37978073
670.393	0.37875213
670.587	0.3776598
670.781	0.37650349
670.975	0.37534539
671.169	0.37394456
671.363	0.37253137
671.558	0.37119343
671.752	0.3699525
671.946	0.36879662
672.14	0.36767417
672.334	0.36645362
672.528	0.36543142
672.722	0.36425254
672.916	0.36314564
673.11	0.36183776
673.304	0.36067598
673.497	0.3592866
673.691	0.3581275
673.885	0.35680299
674.079	0.35568568
674.273	0.35432644
674.467	0.35307193
674.661	0.35174029
674.854	0.35056449
675.048	0.34934985
675.242	0.34825641
675.436	0.34707193
675.629	0.34597687
675.823	0.34481143
676.017	0.34369389
676.211	0.34251553
676.404	0.3413106
676.598	0.34017935
676.792	0.33910764
676.985	0.33794007
677.179	0.33676925
677.372	0.33548551
677.566	0.33425313
677.76	0.33299118
677.953	0.33160998
678.147	0.33032179
678.34	0.32920654
678.534	0.32813008
678.727	0.32712461
678.921	0.32619102
679.114	0.32519069
679.307	0.32425516
679.501	0.32313101
679.694	0.3219647
679.888	0.32076252
680.081	0.3196471
680.274	0.31836289
680.468	0.31727503
680.661	0.31610624
680.854	0.31511299
681.048	0.31395956
681.241	0.31278857
681.434	0.31159229
681.627	0.31046309
681.821	0.30921432
682.014	0.30806245
682.207	0.30674072
682.4	0.30553405
682.593	0.30440757
682.786	0.3032006
682.98	0.30201379
683.173	0.30087905
683.366	0.29972518
683.559	0.29870933
683.752	0.29768497
683.945	0.29662208
684.138	0.29562392
684.331	0.29452972
684.524	0.29345702
684.717	0.2923229
684.91	0.29117594
685.103	0.29003261
685.296	0.28882837
685.489	0.28760398
685.682	0.28644299
685.874	0.28529308
686.067	0.28407728
686.26	0.28292682
686.453	0.28179212
686.646	0.28069413
686.839	0.27964213
687.031	0.2785708
687.224	0.27750022
687.417	0.27667026
687.61	0.27558937
687.802	0.27450405
687.995	0.27348581
688.188	0.27250984
688.38	0.27153362
688.573	0.27059113
688.766	0.26951189
688.958	0.26846142
689.151	0.26739542
689.343	0.26641713
689.536	0.265327
689.729	0.26423495
689.921	0.2630625
690.114	0.2618749
690.306	0.26085047
690.499	0.2599379
690.691	0.25887317
690.884	0.25783159
691.076	0.25685588
691.268	0.25580362
691.461	0.25473964
691.653	0.25375144
691.846	0.25266013
692.038	0.25167326
692.23	0.25058691
692.423	0.24951346
692.615	0.24858098
692.807	0.24769176
692.999	0.24669256
693.192	0.24570217
693.384	0.24468924
693.576	0.24377639
693.768	0.24289567
693.961	0.24188072
694.153	0.24095235
694.345	0.24005357
694.537	0.23918844
694.729	0.23837226
694.921	0.23747334
695.113	0.23653469
695.305	0.23558967
695.498	0.23447634
695.69	0.23344582
695.882	0.23231166
696.074	0.23116508
696.266	0.2300185
696.458	0.22884832
696.65	0.22783708
696.842	0.22696797
697.033	0.22608387
697.225	0.22517089
697.417	0.22433505
697.609	0.22348336
697.801	0.22264284
697.993	0.2217212
698.185	0.22070623
698.376	0.2196439
698.568	0.21864384
698.76	0.21760834
698.952	0.21663601
699.144	0.21568368
699.335	0.21475862
699.527	0.21387106
699.719	0.21302259
699.91	0.21218486
700.102	0.21128101
700.294	0.21041968
700.485	0.20957459
700.677	0.20868116
700.869	0.20785763
701.06	0.2069985
701.252	0.20613529
701.443	0.20530907
701.635	0.20438421
701.826	0.20346411
702.018	0.2026162
702.209	0.20180809
702.401	0.20095714
702.592	0.20013869
702.784	0.19936758
702.975	0.1986692
703.166	0.19798415
703.358	0.19718892
703.549	0.19636472
703.741	0.19554016
703.932	0.19464316
704.123	0.19373051
704.315	0.19280789
704.506	0.19190279
704.697	0.19097625
704.888	0.19011962
705.08	0.18926168
705.271	0.18846917
705.462	0.18759137
705.653	0.18672408
705.844	0.18578437
706.035	0.18495333
706.227	0.18399161
706.418	0.18300662
706.609	0.18205727
706.8	0.18113844
706.991	0.18023929
707.182	0.17953706
707.373	0.17875405
707.564	0.17807666
707.755	0.17746065
707.946	0.17681794
708.137	0.1762268
708.328	0.17555075
708.519	0.17475361
708.71	0.17391692
708.901	0.17302964
709.092	0.17216884
709.283	0.17130732
709.473	0.17043456
709.664	0.16967737
709.855	0.16885461
710.046	0.1681407
710.237	0.16739878
710.427	0.16657249
710.618	0.16579373
710.809	0.16495934
711	0.16412181
711.19	0.16330388
711.381	0.16249423
711.572	0.16165326
711.762	0.16092762
711.953	0.16014303
712.144	0.15934274
712.334	0.15855177
712.525	0.15782858
712.715	0.15706573
712.906	0.15624744
713.097	0.15546011
713.287	0.15470016
713.478	0.15402529
713.668	0.15339774
713.859	0.15281713
714.049	0.15229463
714.239	0.1518455
714.43	0.15128091
714.62	0.15070559
714.811	0.15006032
715.001	0.1493764
715.191	0.1486739
715.382	0.1478772
715.572	0.14730067
715.762	0.14674659
715.953	0.14626528
716.143	0.14577204
716.333	0.14519522
716.523	0.1445591
716.714	0.14394854
716.904	0.14310019
717.094	0.14234329
717.284	0.14155614
717.474	0.14073335
717.664	0.14006944
717.855	0.13944441
718.045	0.13887839
718.235	0.13843122
718.425	0.13795351
718.615	0.13746465
718.805	0.13703635
718.995	0.13648265
719.185	0.13590161
719.375	0.13532286
719.565	0.13469413
719.755	0.13398965
719.945	0.13328528
720.135	0.13263573
720.325	0.13202171
720.515	0.13142958
720.704	0.13075264
720.894	0.13011748
721.084	0.12948385
721.274	0.12891412
721.464	0.12824703
721.654	0.12770918
721.843	0.12714226
722.033	0.12672148
722.223	0.12619607
722.413	0.12577124
722.602	0.12525629
722.792	0.12471561
722.982	0.1240982
723.171	0.12346348
723.361	0.12278425
723.55	0.12221745
723.74	0.12156329
723.93	0.12101048
724.119	0.12048456
724.309	0.11994994
724.498	0.11950585
724.688	0.11907679
724.877	0.1185756
725.067	0.11808469
725.256	0.11755686
725.446	0.11716724
725.635	0.11673653
725.825	0.11626142
726.014	0.1157776
726.203	0.11524507
726.393	0.11468991
726.582	0.11412275
726.771	0.11355637
726.961	0.11306274
727.15	0.11256293
727.339	0.11200369
727.529	0.11149652
727.718	0.11095258
727.907	0.11040161
728.096	0.10978833
728.286	0.10907868
728.475	0.10840065
728.664	0.10777511
728.853	0.10723167
729.042	0.10675143
729.231	0.10628055
729.42	0.10576105
729.609	0.10521602
729.799	0.10467266
729.988	0.10417459
730.177	0.10357433
730.366	0.10294538
730.555	0.10238558
730.744	0.10187392
730.933	0.10143846
731.122	0.10098044
731.31	0.10045658
731.499	0.10003265
731.688	0.09966424
731.877	0.09923576
732.066	0.0988682
732.255	0.09852573
732.444	0.09822854
732.632	0.09802148
732.821	0.09774449
733.01	0.09737106
733.199	0.09701908
733.388	0.09660616
733.576	0.09614988
733.765	0.09565458
733.954	0.09502248
734.142	0.09440349
734.331	0.09387612
734.52	0.09333373
734.708	0.09284273
734.897	0.09240741
735.086	0.09198761
735.274	0.09160612
735.463	0.09126833
735.651	0.09094778
735.84	0.09066385
736.028	0.090318
736.217	0.08992631
736.405	0.08951909
736.594	0.08916692
736.782	0.08876534
736.971	0.08831084
737.159	0.08782289
737.347	0.08742288
737.536	0.08695505
737.724	0.08644654
737.912	0.08596248
738.101	0.08555805
738.289	0.0851457
738.477	0.08475528
738.666	0.08422109
738.854	0.08378675
739.042	0.08338404
739.23	0.0829612
739.418	0.08252584
739.607	0.0821884
739.795	0.08186359
739.983	0.08158194
740.171	0.08129824
740.359	0.08098249
740.547	0.08072039
740.735	0.0804299
740.923	0.08006809
741.112	0.07970476
741.3	0.07941021
741.488	0.07919301
741.676	0.07895968
741.864	0.07868359
742.052	0.07842877
742.239	0.07809278
742.427	0.07771967
742.615	0.07728714
742.803	0.07683002
742.991	0.07646475
743.179	0.07608718
743.367	0.07566278
743.555	0.07531551
743.742	0.07496289
743.93	0.07472472
744.118	0.07438673
744.306	0.07404595
744.494	0.07372273
744.681	0.07352466
744.869	0.07331835
745.057	0.07309868
745.244	0.07276099
745.432	0.07245966
745.62	0.07208512
745.807	0.07178883
745.995	0.07142477
746.182	0.07109831
746.37	0.07077435
746.558	0.0704406
746.745	0.07018895
746.933	0.06999869
747.12	0.0698146
747.308	0.06959266
747.495	0.06927477
747.683	0.06898864
747.87	0.0687514
748.057	0.0684899
748.245	0.06815596
748.432	0.06774373
748.62	0.06733427
748.807	0.06707481
748.994	0.06682582
749.182	0.06655317
749.369	0.06625778
749.556	0.06608906
749.743	0.06594761
749.931	0.06580405
750.118	0.06557684
750.305	0.06531248
750.492	0.06506028
750.68	0.06489493
750.867	0.06475566
751.054	0.06448792
751.241	0.06427281
751.428	0.0640253
751.615	0.06376615
751.802	0.06344751
751.989	0.06303974
752.176	0.06255633
752.363	0.06217447
752.55	0.06173197
752.737	0.06141287
752.924	0.0611418
753.111	0.06099882
753.298	0.06092582
753.485	0.06084992
753.672	0.06070196
753.859	0.06057219
754.046	0.06038318
754.233	0.06022094
754.42	0.05995214
754.606	0.05953463
754.793	0.05915751
754.98	0.05882385
755.167	0.05855306
755.353	0.05833238
755.54	0.05810061
755.727	0.05797116
755.914	0.05785761
756.1	0.05772761
756.287	0.0576603
756.474	0.05750874
756.66	0.05736193
756.847	0.05710089
757.033	0.05682402
757.22	0.05660299
757.407	0.05637206
757.593	0.05609624
757.78	0.05590776
757.966	0.055664
758.153	0.05544655
758.339	0.05515072
758.526	0.05488014
758.712	0.05463127
758.898	0.05444157
759.085	0.05421918
759.271	0.05409095
759.458	0.05407608
759.644	0.05411052
759.83	0.05406587
760.017	0.05397984
760.203	0.05390157
760.389	0.05378716
760.576	0.05355839
760.762	0.05328525
760.948	0.05303932
761.134	0.05279369
761.32	0.05265093
761.507	0.05247125
761.693	0.05238391
761.879	0.05232199
762.065	0.05222019
762.251	0.05212779
762.437	0.05213799
762.623	0.05202465
762.809	0.05187794
762.995	0.05162242
763.181	0.05144509
763.367	0.05132244
763.553	0.05113691
763.739	0.05084553
763.925	0.05054246
764.111	0.0502596
764.297	0.05004671
764.483	0.0497256
764.669	0.04942817
764.855	0.04918931
765.041	0.04903224
765.227	0.048877
765.412	0.04865498
765.598	0.04846672
765.784	0.04837592
765.97	0.04823417
766.156	0.04807625
766.341	0.0479643
766.527	0.04787308
766.713	0.04788582
766.898	0.04788831
767.084	0.04771758
767.27	0.04756472
767.455	0.04733471
767.641	0.04712945
767.827	0.04695347
768.012	0.04674372
768.198	0.04649769
768.383	0.04644056
768.569	0.04638624
768.754	0.04641066
768.94	0.04637331
769.125	0.04630077
769.311	0.04627749
769.496	0.04630086
769.682	0.04623679
769.867	0.04617457
770.052	0.04604065
770.238	0.04587541
770.423	0.04579272
770.608	0.04561505
770.794	0.04542623
770.979	0.04526531
771.164	0.04517452
771.35	0.04499384
771.535	0.04490783
771.72	0.04480831
771.905	0.04479733
772.09	0.044603
772.276	0.0444235
772.461	0.04422318
772.646	0.0441496
772.831	0.0439908
773.016	0.043805
773.201	0.04361537
773.386	0.04355854
773.571	0.04352142
773.756	0.04346718
773.941	0.04342384
774.126	0.0434349
774.311	0.0435001
774.496	0.04352304
774.681	0.04356113
774.866	0.04357647
775.051	0.04359637
775.236	0.04366746
775.421	0.04361807
775.606	0.04354663
775.791	0.04344584
775.976	0.04327104
776.16	0.04308923
776.345	0.04291045
776.53	0.04271765
776.715	0.04260956
776.899	0.04242242
777.084	0.04224216
777.269	0.0422071
777.454	0.0421207
777.638	0.04207174
777.823	0.0420045
778.008	0.04197226
778.192	0.04197835
778.377	0.04201779
778.561	0.04190806
778.746	0.04183003
778.931	0.04169157
779.115	0.04148722
779.3	0.04126577
779.484	0.04107717
779.669	0.04085015
779.853	0.04070616
780.037	0.04053497
780.222	0.04037476
780.406	0.0402174
780.591	0.04005745
780.775	0.03988836
780.959	0.03978112
781.144	0.03966598
781.328	0.039617
781.512	0.03962316
781.697	0.03966064
781.881	0.03979395
782.065	0.03988372
782.249	0.039961
782.434	0.04005382
782.618	0.04012123
782.802	0.04014148
782.986	0.04014537
783.17	0.04004257
783.354	0.04001489
783.539	0.04003037
783.723	0.03997657
783.907	0.03985221
784.091	0.03975316
784.275	0.03955862
784.459	0.03940794
784.643	0.03919103
784.827	0.03899265
785.011	0.03878971
785.195	0.03862421
785.379	0.03839324
785.563	0.03835704
785.747	0.03821924
785.93	0.03805472
786.114	0.03778838
786.298	0.03754405
786.482	0.03731125
786.666	0.03716167
786.85	0.03704342
787.033	0.03703491
787.217	0.03703076
787.401	0.03701834
787.585	0.03700125
787.768	0.03702907
787.952	0.03703626
788.136	0.03693473
788.319	0.03682546
788.503	0.03676832
788.687	0.03677569
788.87	0.03677946
789.054	0.03670425
789.237	0.03664756
789.421	0.03663924
789.605	0.03656035
789.788	0.0364295
789.972	0.0362292
790.155	0.03607578
790.338	0.03593787
790.522	0.03575441
790.705	0.03559034
790.889	0.03555813
791.072	0.03560211
791.256	0.0356977
791.439	0.03583016
791.622	0.03598226
791.806	0.03617911
791.989	0.03632302
792.172	0.03634202
792.355	0.03623433
792.539	0.03609273
792.722	0.03590465
792.905	0.03574994
793.088	0.03559617
793.271	0.03544437
793.455	0.03533511
793.638	0.03531927
793.821	0.03528304
794.004	0.03520907
794.187	0.03519118
794.37	0.03513643
794.553	0.03501071
794.736	0.03488384
794.919	0.03483246
795.102	0.03483487
795.285	0.03495707
795.468	0.03498462
795.651	0.03500072
795.834	0.0350494
796.017	0.03508373
796.2	0.03509743
796.383	0.03507253
796.566	0.034923
796.749	0.03475785
796.931	0.03456155
797.114	0.03436003
797.297	0.03423531
797.48	0.03407925
797.663	0.03396445
797.845	0.03391712
798.028	0.03395146
798.211	0.0340315
798.393	0.0343033
798.576	0.03449977
798.759	0.03462856
798.941	0.03482968
799.124	0.03497141
799.307	0.03502315
799.489	0.03504374
799.672	0.03493108
799.854	0.03478211
800.037	0.03470839
800.219	0.03453901
800.402	0.03439944
800.584	0.03436875
800.767	0.03437739
800.949	0.03437643
801.132	0.03439948
801.314	0.03431944
801.496	0.03429984
801.679	0.03430174
801.861	0.03422878
802.043	0.03412928
802.226	0.03403417
802.408	0.03386373
802.59	0.03381221
802.772	0.03362787
802.955	0.0335077
803.137	0.03337957
803.319	0.03327994
803.501	0.03317113
803.684	0.03310753
803.866	0.03297297
804.048	0.03295896
804.23	0.03293473
804.412	0.03298574
804.594	0.03300734
804.776	0.0331048
804.958	0.03327559
805.14	0.03349448
805.322	0.03362383
805.504	0.03364431
805.686	0.03358189
805.868	0.03350806
806.05	0.0334163
806.232	0.03332943
806.414	0.03322789
806.596	0.03327376
806.778	0.03329173
806.96	0.03335948
807.141	0.03342021
807.323	0.03335313
807.505	0.03323224
807.687	0.03306044
807.869	0.03280865
808.05	0.03254182
808.232	0.03230925
808.414	0.03214826
808.595	0.03210345
808.777	0.03205453
808.959	0.03206706
809.14	0.03204409
809.322	0.03216746
809.504	0.03238371
809.685	0.0324785
809.867	0.03260663
810.048	0.0326517
810.23	0.03269255
810.411	0.03275141
810.593	0.03274826
810.774	0.03264192
810.956	0.0325399
811.137	0.03233747
811.319	0.03220776
811.5	0.03215103
811.681	0.03210671
811.863	0.03206427
812.044	0.03211189
812.225	0.03227628
812.407	0.03247726
812.588	0.03264518
812.769	0.03275293
812.951	0.03287995
813.132	0.03297238
813.313	0.03291633
813.494	0.03286639
813.675	0.03278629
813.857	0.03277222
814.038	0.03282321
814.219	0.03289637
814.4	0.03307141
814.581	0.03330187
814.762	0.03344719
814.943	0.03354763
815.124	0.03358983
815.305	0.03360192
815.486	0.03358375
815.667	0.03348882
815.848	0.03339593
816.029	0.03332313
816.21	0.03335799
816.391	0.03340656
816.572	0.03328921
816.753	0.03319834
816.934	0.03304847
817.115	0.0328153
817.295	0.03260488
817.476	0.03240439
817.657	0.03230516
817.838	0.03232461
818.019	0.03224324
818.199	0.0321685
818.38	0.03222545
818.561	0.03225414
818.741	0.03222697
818.922	0.03221669
819.103	0.03222099
819.283	0.03221053
819.464	0.03235969
819.645	0.03251668
819.825	0.03261998
820.006	0.03272788
820.186	0.03273989
820.367	0.03271017
820.547	0.03268353
820.728	0.03258324
820.908	0.03238156
821.089	0.03234388
821.269	0.0323774
821.45	0.03248797
821.63	0.03256028
821.81	0.03270197
821.991	0.03284311
822.171	0.03294646
822.351	0.03291573
822.532	0.03287835
822.712	0.03278334
822.892	0.03277175
823.072	0.03265863
823.253	0.03255738
823.433	0.03252378
823.613	0.03255162
823.793	0.03248939
823.973	0.03236941
824.154	0.03228035
824.334	0.03228083
824.514	0.03229813
824.694	0.03233891
824.874	0.03243331
825.054	0.03251076
825.234	0.03264939
825.414	0.03270296
825.594	0.03276209
825.774	0.03270531
825.954	0.03271204
826.134	0.03262483
826.314	0.03264005
826.494	0.03267179
826.674	0.03265475
826.854	0.0325676
827.033	0.03262525
827.213	0.03242374
827.393	0.03223783
827.573	0.03197926
827.753	0.03174998
827.932	0.03159465
828.112	0.03152888
828.292	0.03138638
828.472	0.0313945
828.651	0.03138736
828.831	0.03140556
829.011	0.03136556
829.19	0.03142024
829.37	0.03156569
829.549	0.03176135
829.729	0.031934
829.909	0.03210909
830.088	0.03227416
830.268	0.03248482
830.447	0.03261067
830.627	0.03261153
830.806	0.03249219
830.986	0.03241346
831.165	0.0323993
831.344	0.03237134
831.524	0.03235188
831.703	0.03233523
831.883	0.03235112
832.062	0.03248511
832.241	0.03248846
832.421	0.03237892
832.6	0.03230899
832.779	0.03222984
832.958	0.03222659
833.138	0.03222473
833.317	0.03216551
833.496	0.03225616
833.675	0.03243486
833.854	0.03260035
834.034	0.03265089
834.213	0.03265264
834.392	0.03261017
834.571	0.03252473
834.75	0.03239934
834.929	0.03230204
835.108	0.03217351
835.287	0.03216861
835.466	0.03205856
835.645	0.03197468
835.824	0.03196047
836.003	0.03194492
836.182	0.03185311
836.361	0.03171401
836.54	0.03157856
836.719	0.03151115
836.897	0.0314238
837.076	0.03133131
837.255	0.03127951
837.434	0.03120501
837.613	0.03115712
837.791	0.03114059
837.97	0.03122237
838.149	0.03132
838.328	0.03130521
838.506	0.03128203
838.685	0.03126873
838.864	0.03136956
839.042	0.03144016
839.221	0.03143705
839.4	0.031474
839.578	0.03158598
839.757	0.03173323
839.935	0.0319662
840.114	0.03200443
840.292	0.03214754
840.471	0.03221911
840.649	0.03230619
840.828	0.03237006
841.006	0.03229393
841.185	0.03216187
841.363	0.03211663
841.541	0.03194565
841.72	0.0318187
841.898	0.03162785
842.076	0.03146849
842.255	0.03139978
842.433	0.03145139
842.611	0.03158726
842.789	0.03159568
842.968	0.0316369
843.146	0.03174502
843.324	0.03184956
843.502	0.03198912
843.68	0.03197726
843.859	0.03185978
844.037	0.03183675
844.215	0.03167911
844.393	0.03152968
844.571	0.03139692
844.749	0.03127373
844.927	0.03119715
845.105	0.03114376
845.283	0.03113567
845.461	0.03121204
845.639	0.03120508
845.817	0.03129959
845.995	0.03135375
846.173	0.03136611
846.351	0.03142097
846.529	0.03141851
846.706	0.03128961
846.884	0.03120487
847.062	0.03095126
847.24	0.03071329
847.418	0.03051178
847.595	0.03036287
847.773	0.03025952
847.951	0.03029073
848.129	0.03036543
848.306	0.03049976
848.484	0.03064249
848.662	0.0307999
848.839	0.03095793
849.017	0.03118542
849.194	0.03135908
849.372	0.03150407
849.549	0.03162593
849.727	0.0317206
849.905	0.0318383
850.082	0.0318533
850.26	0.03178978
850.437	0.03179568
850.614	0.03177818
850.792	0.03175426
850.969	0.03168653
851.147	0.03170377
851.324	0.03164331
851.501	0.03153324
851.679	0.03139388
851.856	0.03125857
852.033	0.03116048
852.211	0.03106674
852.388	0.03094895
852.565	0.03101997
852.742	0.03114362
852.92	0.03127576
853.097	0.03145882
853.274	0.03161143
853.451	0.03177856
853.628	0.03181477
853.805	0.03177243
853.982	0.0316954
854.159	0.03157906
854.336	0.03136235
854.514	0.03122526
854.691	0.03104625
854.868	0.03097415
855.045	0.03091138
855.221	0.03081481
855.398	0.03077881
855.575	0.03086855
855.752	0.03089993
855.929	0.03100751
856.106	0.03105313
856.283	0.03117236
856.46	0.03131737
856.637	0.03147607
856.813	0.03150157
856.99	0.03155423
857.167	0.03152967
857.344	0.03155884
857.52	0.0315175
857.697	0.03139996
857.874	0.03121892
858.05	0.03114456
858.227	0.0311249
858.404	0.03110201
858.58	0.03108298
858.757	0.03099371
858.933	0.03093334
859.11	0.03080365
859.287	0.03054635
859.463	0.03031279
859.64	0.03019138
859.816	0.0300427
859.993	0.03004221
860.169	0.03010326
860.345	0.0302248
860.522	0.03034845
860.698	0.03034107
860.875	0.03029832
861.051	0.03017232
861.227	0.02998936
861.404	0.02999369
861.58	0.02994254
861.756	0.03013134
861.932	0.03030121
862.109	0.03043145
862.285	0.0306494
862.461	0.03080509
862.637	0.03085491
862.813	0.03104711
862.99	0.03098444
863.166	0.03094576
863.342	0.03091214
863.518	0.03084038
863.694	0.03084476
863.87	0.03076841
864.046	0.030682
864.222	0.03076392
864.398	0.03073546
864.574	0.03077335
864.75	0.03084628
864.926	0.03092682
865.102	0.0310036
865.278	0.03103588
865.454	0.03102246
865.63	0.03109382
865.805	0.03103734
865.981	0.03097581
866.157	0.03094498
866.333	0.03104118
866.509	0.03108466
866.684	0.03122208
866.86	0.03133347
867.036	0.03146066
867.212	0.03155104
867.387	0.03144518
867.563	0.03135336
867.739	0.03124151
867.914	0.03108922
868.09	0.03091635
868.265	0.03077056
868.441	0.0306124
868.617	0.03061974
868.792	0.03047725
868.968	0.03044129
869.143	0.03042337
869.319	0.03053307
869.494	0.030709
869.67	0.03096923
869.845	0.03110525
870.02	0.03133135
870.196	0.03157245
870.371	0.03170752
870.546	0.03179164
870.722	0.0319122
870.897	0.03193655
871.072	0.03198909
871.248	0.03196062
871.423	0.03187197
871.598	0.03169052
871.773	0.03143473
871.949	0.03107867
872.124	0.03088366
872.299	0.03076444
872.474	0.03057932
872.649	0.03041707
872.824	0.03036454
872.999	0.03035856
873.174	0.03043271
873.349	0.03038852
873.524	0.03024618
873.699	0.03016861
873.874	0.03017008
874.049	0.03016441
874.224	0.03012366
874.399	0.0299942
874.574	0.02986702
874.749	0.02982629
874.924	0.02983246
875.099	0.02977645
875.274	0.0297331
875.449	0.0298041
875.623	0.02985559
875.798	0.02979998
875.973	0.02975057
876.148	0.02967412
876.322	0.02952542
876.497	0.02949645
876.672	0.02935671
876.846	0.0292673
877.021	0.0291883
877.196	0.02914894
877.37	0.02916235
877.545	0.02928903
877.72	0.02927084
877.894	0.02935802
878.069	0.02935969
878.243	0.02942642
878.418	0.02944479
878.592	0.02944937
878.767	0.02943043
878.941	0.02937246
879.116	0.02926412
879.29	0.02936822
879.464	0.02960444
879.639	0.02983192
879.813	0.03006496
879.987	0.03018565
880.162	0.03014208
880.336	0.03017035
880.51	0.03005252
880.685	0.02976792
880.859	0.02959576
881.033	0.02941017
881.207	0.02930413
881.381	0.02939565
881.556	0.02946866
881.73	0.02949933
881.904	0.02954886
882.078	0.0294212
882.252	0.02929989
882.426	0.02921317
882.6	0.02915298
882.774	0.02917368
882.948	0.02931399
883.122	0.02947766
883.296	0.02960873
883.47	0.029702
883.644	0.02975281
883.818	0.02971175
883.992	0.02955018
884.166	0.02946131
884.34	0.02929984
884.514	0.02929962
884.687	0.02922762
884.861	0.02913297
885.035	0.0291066
885.209	0.02919085
885.382	0.02915075
885.556	0.0293123
885.73	0.02942265
885.904	0.02966317
886.077	0.02985983
886.251	0.0300584
886.425	0.03020707
886.598	0.03028705
886.772	0.03032898
886.945	0.03027516
887.119	0.03023642
887.292	0.03025063
887.466	0.03033554
887.64	0.0303125
887.813	0.03038415
887.986	0.03035796
888.16	0.03044505
888.333	0.0304778
888.507	0.03047087
888.68	0.03043128
888.854	0.03044871
889.027	0.03045458
889.2	0.03042434
889.374	0.03038329
889.547	0.03032088
889.72	0.030375
889.893	0.03030029
890.067	0.03022182
890.24	0.03001591
890.413	0.02981632
890.586	0.02970238
890.759	0.02965771
890.933	0.02956095
891.106	0.02941869
891.279	0.029279
891.452	0.02929533
891.625	0.02939429
891.798	0.02926364
891.971	0.02909179
892.144	0.02889676
892.317	0.02889411
892.49	0.02886244
892.663	0.02892878
892.836	0.02882418
893.009	0.02882115
893.182	0.02872284
893.355	0.02863535
893.527	0.02848498
893.7	0.02837528
893.873	0.02815473
894.046	0.02807245
894.219	0.02801904
894.391	0.02797039
894.564	0.02795132
894.737	0.02790651
894.91	0.0279656
895.082	0.02786363
895.255	0.0277281
895.428	0.02764734
895.6	0.02769046
895.773	0.02759894
895.945	0.02765402
896.118	0.02751657
896.291	0.02755513
896.463	0.02760423
896.636	0.02770012
896.808	0.02768999
896.981	0.02786385
897.153	0.02785899
897.326	0.02791713
897.498	0.02793701
897.67	0.02795095
897.843	0.02786597
898.015	0.02786335
898.187	0.02771878
898.36	0.02770633
898.532	0.02769138
898.704	0.02775394
898.877	0.02776051
899.049	0.02773591
899.221	0.02774803
899.393	0.02789776
899.566	0.02792805
899.738	0.0280612
899.91	0.02803801
900.082	0.02823254
900.254	0.02841035
900.426	0.02845067
900.598	0.02848179
900.77	0.02854332
900.942	0.02844589
901.114	0.02829509
901.286	0.02807301
901.458	0.02796292
901.63	0.02785645
901.802	0.02779199
901.974	0.02771701
902.146	0.02770204
902.318	0.02791714
902.49	0.02791383
902.662	0.02786214
902.834	0.02787758
903.005	0.02776606
903.177	0.0275417
903.349	0.02739517
903.521	0.02715443
903.693	0.02715466
903.864	0.02718765
904.036	0.02722805
904.208	0.02733241
904.379	0.02758385
904.551	0.02769602
904.723	0.02757071
904.894	0.02745537
905.066	0.02727038
905.237	0.02693195
905.409	0.02657312
905.58	0.02622463
905.752	0.02603506
905.923	0.02607918
906.095	0.02599922
906.266	0.02592606
906.438	0.02601713
906.609	0.02615855
906.78	0.02617175
906.952	0.02614456
907.123	0.02608532
907.295	0.02595188
907.466	0.02576625
907.637	0.02561005
907.808	0.0253543
907.98	0.02526135
908.151	0.02511024
908.322	0.02500928
908.493	0.02497316
908.665	0.02500264
908.836	0.0250124
909.007	0.02506073
909.178	0.02512337
909.349	0.0251835
909.52	0.02526289
909.691	0.02529518
909.862	0.02539054
910.033	0.02552174
910.204	0.02567031
910.375	0.02572327
910.546	0.02584471
910.717	0.02577737
910.888	0.0259416
911.059	0.02591934
911.23	0.02590376
911.401	0.02588555
911.572	0.02603401
911.742	0.02608829
911.913	0.02626429
912.084	0.02641548
912.255	0.02665775
912.426	0.02677463
912.596	0.02684078
912.767	0.02681348
912.938	0.02679709
913.108	0.02685677
913.279	0.02671266
913.45	0.0265013
913.62	0.02642032
913.791	0.02634355
913.962	0.02628123
914.132	0.0262832
914.303	0.02617657
914.473	0.02615698
914.644	0.0261157
914.814	0.02605528
914.985	0.02600146
915.155	0.02591333
915.326	0.02579643
915.496	0.02571096
915.666	0.0257181
915.837	0.02573689
916.007	0.0257362
916.177	0.02560237
916.348	0.02546789
916.518	0.02530687
916.688	0.02516369
916.858	0.02498014
917.029	0.02484137
917.199	0.02467976
917.369	0.02482393
917.539	0.02494058
917.709	0.02507552
917.88	0.02513714
918.05	0.02506079
918.22	0.0252046
918.39	0.02532349
918.56	0.02520306
918.73	0.02518338
918.9	0.02515947
919.07	0.02525806
919.24	0.02543717
919.41	0.0255094
919.58	0.02557
919.75	0.02563448
919.92	0.0256112
920.09	0.02556546
920.26	0.02550989
920.429	0.025482
920.599	0.02530437
920.769	0.02522998
920.939	0.02518336
921.109	0.0251616
921.278	0.02519
921.448	0.02509752
921.618	0.02507669
921.787	0.02507488
921.957	0.02505305
922.127	0.02496595
922.296	0.02497033
922.466	0.0248941
922.636	0.02483987
922.805	0.02467065
922.975	0.02445604
923.144	0.02418989
923.314	0.024121
923.483	0.02385611
923.653	0.02355611
923.822	0.02343622
923.992	0.02323356
924.161	0.0233077
924.331	0.02318879
924.5	0.023131
924.669	0.02300227
924.839	0.02295883
925.008	0.02284917
925.177	0.02282661
925.347	0.02268479
925.516	0.02272346
925.685	0.02258518
925.854	0.02262948
926.023	0.02281577
926.193	0.02303119
926.362	0.02322326
926.531	0.02339447
926.7	0.02359067
926.869	0.02384488
927.038	0.02394887
927.207	0.02406993
927.376	0.02412917
927.545	0.024233
927.715	0.024296
927.884	0.02426551
928.052	0.024226
928.221	0.02414021
928.39	0.0239607
928.559	0.02374653
928.728	0.0235549
928.897	0.02341607
929.066	0.02335308
929.235	0.02331916
929.404	0.02346812
929.572	0.02354052
929.741	0.02347854
929.91	0.02331052
930.079	0.02314843
930.247	0.02303481
930.416	0.0228257
930.585	0.02257872
930.753	0.02242161
930.922	0.0225119
931.091	0.02276985
931.259	0.0228752
931.428	0.02300832
931.596	0.02325798
931.765	0.0235925
931.934	0.02383098
932.102	0.02393373
932.27	0.0239206
932.439	0.02406378
932.607	0.0241012
932.776	0.02406655
932.944	0.02388835
933.113	0.02370926
933.281	0.02364026
933.449	0.02356029
933.618	0.02355718
933.786	0.02350028
933.954	0.02350438
934.123	0.02352972
934.291	0.02374648
934.459	0.02398422
934.627	0.02420565
934.795	0.02416501
934.964	0.02428602
935.132	0.02442387
935.3	0.02457512
935.468	0.02449245
935.636	0.02443404
935.804	0.0244455
935.972	0.0246337
936.14	0.02475478
936.308	0.02483087
936.476	0.02517253
936.644	0.02541535
936.812	0.02546985
936.98	0.0255534
937.148	0.02569601
937.316	0.02573874
937.484	0.02572011
937.652	0.02588385
937.82	0.02612523
937.987	0.02677083
938.155	0.02694401
938.323	0.02716305
938.491	0.02754866
938.658	0.02807546
938.826	0.02824631
938.994	0.02874385
939.162	0.0283892
939.329	0.02872442
939.497	0.02908717
939.665	0.02945553
939.832	0.02985837
940	0.02983731
940.167	0.02993551
940.335	0.0305466
940.502	0.03078909
940.67	0.03103241
940.837	0.03126306
941.005	0.03158687
941.172	0.03231168
941.34	0.03290778
941.507	0.03336818
941.674	0.03402426
941.842	0.03431525
942.009	0.034733
942.177	0.03473568
942.344	0.03509412
942.511	0.03490149
942.678	0.03523533
942.846	0.03518756
943.013	0.03566448
943.18	0.03579038
943.347	0.03539221
943.514	0.03506845
943.682	0.03560157
943.849	0.03564199
944.016	0.03557666
944.183	0.0358498
944.35	0.0359575
944.517	0.03675672
944.684	0.0367859
944.851	0.03576621
945.018	0.03532876
945.185	0.03561917
945.352	0.03497112
945.519	0.03494182
945.686	0.03418144
945.853	0.03431279
946.02	0.03457039
946.187	0.03422484
946.353	0.03418214
946.52	0.03379484
946.687	0.03346371
946.854	0.0337062
947.021	0.03292441
947.187	0.0327747
947.354	0.03217889
947.521	0.03171906
947.687	0.03192143
947.854	0.03137653
948.021	0.03065188
948.187	0.0306789
948.354	0.03023168
948.52	0.03029423
948.687	0.03030011
948.854	0.02989149
949.02	0.02959728
949.187	0.02985318
949.353	0.02937956
949.52	0.02947547
949.686	0.02947407
949.852	0.02912861
950.019	0.0288826
950.185	0.02864784
950.352	0.02822223
950.518	0.02808122
950.684	0.02749978
950.851	0.02710658
951.017	0.0266178
951.183	0.02665984
951.349	0.02599149
951.516	0.02584791
951.682	0.02577697
951.848	0.02543781
952.014	0.02440118
952.18	0.02398469
952.346	0.02321077
952.512	0.02300255
952.679	0.02285668
952.845	0.02293865
953.011	0.02289485
953.177	0.02324904
953.343	0.02299701
953.509	0.02316719
953.675	0.02340544
953.841	0.02326704
954.007	0.02281142
954.172	0.02289014
954.338	0.02255104
954.504	0.02224084
954.67	0.02184274
954.836	0.02179469
955.002	0.02132764
955.167	0.0206982
955.333	0.02014697
955.499	0.02004267
955.665	0.01997273
955.83	0.01947199
955.996	0.01859717
956.162	0.01816676
956.327	0.01797975
956.493	0.01741579
956.659	0.01717567
956.824	0.01690048
956.99	0.01672692
957.155	0.01685673
957.321	0.01672645
957.486	0.01645289
957.652	0.0163549
957.817	0.01636931
957.983	0.01614265
958.148	0.0162659
958.314	0.01607372
958.479	0.01601627
958.644	0.01619705
958.81	0.0163515
958.975	0.01590767
959.14	0.01611168
959.306	0.01587712
959.471	0.0160729
959.636	0.01623291
959.801	0.01644341
959.967	0.01666554
960.132	0.01699169
960.297	0.01682224
960.462	0.01695072
960.627	0.01693893
960.792	0.01659012
960.957	0.0162986
961.123	0.01593326
961.288	0.01573748
961.453	0.01571343
961.618	0.01546404
961.783	0.01529857
961.948	0.01537757
962.113	0.0153303
962.277	0.01528817
962.442	0.0152918
962.607	0.01554172
962.772	0.01568185
962.937	0.01529571
963.102	0.01517066
963.267	0.0150017
963.431	0.01511236
963.596	0.01511523
963.761	0.01494475
963.926	0.0149612
964.09	0.01520615
964.255	0.0154743
964.42	0.01540807
964.584	0.01541928
964.749	0.01530081
964.914	0.0151437
965.078	0.01521999
965.243	0.01523401
965.407	0.01512819
965.572	0.0154323
965.736	0.01551589
965.901	0.01567969
966.065	0.01583
966.23	0.01560358
966.394	0.0157741
966.559	0.01567001
966.723	0.01571479
966.887	0.01552204
967.052	0.01541818
967.216	0.01537422
967.38	0.01523528
967.545	0.01517699
967.709	0.01532739
967.873	0.01502499
968.037	0.01510921
968.202	0.01539348
968.366	0.01538122
968.53	0.01565888
968.694	0.01566059
968.858	0.01557367
969.022	0.01572652
969.187	0.01568333
969.351	0.01553322
969.515	0.01562965
969.679	0.01588601
969.843	0.01598315
970.007	0.01604924
970.171	0.01603348
970.335	0.01630009
970.499	0.01602298
970.662	0.01615967
970.826	0.01607286
970.99	0.01588251
971.154	0.01615125
971.318	0.01642635
971.482	0.01613628
971.645	0.01644055
971.809	0.01601766
971.973	0.01560249
972.137	0.01555994
972.3	0.01528536
972.464	0.01523488
972.628	0.0151795
972.791	0.01512256
972.955	0.01537211
973.119	0.01544177
973.282	0.01547654
973.446	0.0152101
973.609	0.01485473
973.773	0.0147961
973.936	0.01460762
974.1	0.01431072
974.263	0.01425782
974.427	0.01431961
974.59	0.01438222
974.754	0.01420349
974.917	0.01422253
975.08	0.01397192
975.244	0.01388191
975.407	0.01384963
975.57	0.01352116
975.734	0.01346742
975.897	0.01353484
976.06	0.01320284
976.223	0.01317608
976.387	0.01304626
976.55	0.01278785
976.713	0.0126535
976.876	0.01265937
977.039	0.01264165
977.202	0.01276355
977.365	0.0130278
977.528	0.0131722
977.692	0.01323109
977.855	0.01314505
978.018	0.0129507
978.181	0.01274734
978.344	0.01246902
978.506	0.01235341
978.669	0.01255497
978.832	0.01268233
978.995	0.01283817
979.158	0.01292778
979.321	0.01337185
979.484	0.01392435
979.646	0.01412421
979.809	0.01418067
979.972	0.01430569
980.135	0.01463915
980.297	0.01505249
980.46	0.01511308
980.623	0.01506661
980.786	0.01495444
980.948	0.01478323
981.111	0.0147951
981.273	0.0146254
981.436	0.01431677
981.599	0.01416709
981.761	0.01411441
981.924	0.01416624
982.086	0.0140474
982.249	0.01396443
982.411	0.01385641
982.573	0.0139077
982.736	0.01374905
982.898	0.01362086
983.061	0.01345246
983.223	0.01324347
983.385	0.01337331
983.548	0.01348388
983.71	0.01352897
983.872	0.0136525
984.034	0.01384232
984.197	0.01375759
984.359	0.01425785
984.521	0.01412065
984.683	0.01402402
984.845	0.01367632
985.008	0.01365142
985.17	0.01341432
985.332	0.0137203
985.494	0.01334274
985.656	0.0132105
985.818	0.01327603
985.98	0.01334317
986.142	0.01302409
986.304	0.01266857
986.466	0.01210146
986.628	0.01218666
986.79	0.01239665
986.952	0.01238557
987.113	0.01264064
987.275	0.0129826
987.437	0.01325225
987.599	0.01341985
987.761	0.01331744
987.922	0.01308488
988.084	0.01304572
988.246	0.01305506
988.408	0.01258178
988.569	0.01292412
988.731	0.01327036
988.893	0.0134137
989.054	0.01355037
989.216	0.01383957
989.377	0.01377152
989.539	0.01427127
989.701	0.01392007
989.862	0.01382543
990.024	0.0136402
990.185	0.01329399
990.347	0.01295183
990.508	0.0129613
990.669	0.01274744
990.831	0.01304167
990.992	0.01318049
991.154	0.01334146
991.315	0.0139374
991.476	0.014025
991.638	0.01410462
991.799	0.01399298
991.96	0.0139641
992.121	0.01418412
992.283	0.014329
992.444	0.01383611
992.605	0.01404327
992.766	0.01400926
992.927	0.01406851
993.088	0.01370944
993.249	0.01319887
993.41	0.01297489
993.572	0.01321378
993.733	0.01305643
993.894	0.01262817
994.055	0.01224945
994.216	0.01256076
994.376	0.01267042
994.537	0.01267568
994.698	0.01223155
994.859	0.01164342
995.02	0.01173136
995.181	0.01185834
995.342	0.01111616
995.503	0.01048656
995.663	0.00982229
995.824	0.0098219
995.985	0.01010272
996.146	0.01012529
996.306	0.01043805
996.467	0.01093954
996.628	0.01118719
996.788	0.01206482
996.949	0.01204356
997.11	0.01241628
997.27	0.01195448
997.431	0.01156685
997.591	0.0111648
997.752	0.0114201
997.912	0.01120889
998.073	0.01123961
998.233	0.01076362
998.394	0.01130378
998.554	0.01177218
998.714	0.01269739
998.875	0.0125443
999.035	0.01268914
999.196	0.01313731
999.356	0.01333773
999.516	0.01320468
999.676	0.01297273
999.837	0.01203996
999.997	0.01238735
1000.157	0.01209225
1000.317	0.01135836
1000.477	0.01148468
1000.638	0.011418
1000.798	0.0115631
1000.958	0.01201942
1001.118	0.01205245
1001.278	0.01193345
1001.438	0.01244725
1001.598	0.01253318
1001.758	0.01263901
1001.918	0.01269288
1002.078	0.01248368
1002.238	0.01258329
1002.398	0.01263968
1002.558	0.0128204
1002.718	0.01258907
1002.878	0.01229078
1003.037	0.01187748
1003.197	0.01230436
1003.357	0.01223923
1003.517	0.01281738
1003.677	0.01252826
1003.836	0.01227229
1003.996	0.01296418
1004.156	0.01339864
1004.315	0.01300519
1004.475	0.01269051
1004.635	0.01235813
1004.794	0.01201225
1004.954	0.01241934
1005.114	0.01169808
1005.273	0.01193382
1005.433	0.01199611
1005.592	0.01209259
1005.752	0.01224262
1005.911	0.01256254
1006.071	0.01264489
1006.23	0.01301092
1006.389	0.01270439
1006.549	0.01235604
1006.708	0.01255896
1006.868	0.01239169
1007.027	0.01259565
1007.186	0.0115961
1007.345	0.01177976
1007.505	0.01149433
1007.664	0.0123086
1007.823	0.01209423
1007.982	0.01191244
1008.142	0.01204125
1008.301	0.01280339
1008.46	0.0125239
1008.619	0.0127622
1008.778	0.01257529
1008.937	0.01291529
1009.096	0.01308808
1009.255	0.01301021
1009.414	0.01353777
1009.573	0.01273899
1009.732	0.01337248
1009.891	0.01350036
1010.05	0.01300212
1010.209	0.01331525
1010.368	0.01368855
1010.527	0.01335409
1010.686	0.01428756
1010.845	0.01368049
1011.003	0.01374537
1011.162	0.01389393
1011.321	0.01396957
1011.48	0.01379778
1011.638	0.0143152
1011.797	0.01528774
1011.956	0.01538738
1012.115	0.01572645
1012.273	0.01555433
1012.432	0.01556316
1012.59	0.01614544
1012.749	0.01608068
1012.908	0.01503095
1013.066	0.01556496
1013.225	0.01549406
1013.383	0.01622419
1013.542	0.01618894
1013.7	0.01553933
1013.859	0.01542831
1014.017	0.01609493
1014.175	0.0155521
1014.334	0.01552115
1014.492	0.01520461
1014.65	0.01455396
1014.809	0.01514937
1014.967	0.01428927
1015.125	0.01390577
1015.284	0.01435308
1015.442	0.01396513
1015.6	0.01450851
1015.758	0.01550335
1015.916	0.0156858
1016.075	0.01587077
1016.233	0.0167597
1016.391	0.0162889
1016.549	0.01667523
1016.707	0.01638938
1016.865	0.01660481
1017.023	0.01710068
1017.181	0.01830416
1017.339	0.01719424
1017.497	0.01751004
1017.655	0.01808835
1017.813	0.01867199
1017.971	0.01786525
1018.129	0.01766997
1018.286	0.01796303
1018.444	0.01831186
1018.602	0.01887056
1018.76	0.01900743
1018.918	0.01934384
1019.075	0.01935736
1019.233	0.01908443
1019.391	0.0176648
1019.549	0.01885406
1019.706	0.01900477
1019.864	0.01896722
1020.022	0.01860786
1020.179	0.01989425
1020.337	0.02089712
1020.494	0.0212947
1020.652	0.02045121
1020.809	0.02025296
1020.967	0.01989897
1021.124	0.02065883
1021.282	0.01984255
1021.439	0.01991173
1021.597	0.02019596
1021.754	0.02121534
1021.911	0.02124808
1022.069	0.0209705
1022.226	0.01930616
1022.384	0.0202738
1022.541	0.01898894
1022.698	0.01965276
1022.855	0.01847229
1023.013	0.01906052
1023.17	0.01982704
1023.327	0.02277998
1023.484	0.02357069
1023.641	0.02442401
1023.798	0.02367515
1023.956	0.02647353
1024.113	0.0259979
1024.27	0.0263461
1024.427	0.0238169
1024.584	0.02435613
1024.741	0.0252717
1024.898	0.02587484
1025.055	0.02521235
1025.212	0.0244674
1025.369	0.02420022
1025.525	0.02456233
1025.682	0.0245723
1025.839	0.02392448
1025.996	0.02605013
1026.153	0.02604687
1026.31	0.02842947
1026.466	0.02835043
1026.623	0.03034243
1026.78	0.03067718
1026.937	0.03285247
1027.093	0.03165804
1027.25	0.03130492
1027.407	0.03266975
1027.563	0.03353322
1027.72	0.03353955
1027.876	0.03178148
1028.033	0.03049301
1028.19	0.0308078
1028.346	0.03000989
1028.503	0.02827107
1028.659	0.0291062
1028.816	0.02614541
1028.972	0.02710807
1029.128	0.02730737
1029.285	0.02579083
1029.441	0.02631085
1029.598	0.02769871
1029.754	0.02879365
1029.91	0.03084848
1030.067	0.03143326
1030.223	0.03072232
1030.379	0.03218747
1030.535	0.03361043
1030.691	0.03224009
1030.848	0.03098973
1031.004	0.03038423
1031.16	0.03076467
1031.316	0.03166426
1031.472	0.03188936
1031.628	0.03225459
1031.784	0.03449617
1031.94	0.03447518
1032.096	0.03721254
1032.252	0.03818833
1032.408	0.03723795
1032.564	0.03854985
1032.72	0.04017123
1032.876	0.03607017
1033.032	0.03615498
1033.188	0.03476229
1033.344	0.03261099
1033.5	0.0329016
1033.655	0.03242413
1033.811	0.0289272
1033.967	0.03163567
