Data from 1_mm_pl_0pc_Absorbance__0__16-57-42-067.txt Node

Date: Wed Mar 08 16:57:42 CET 2023
User: Ange
Spectrometer: FLMT08341
Trigger mode: 0
Integration Time (sec): 1.000000E-2
Scans to average: 400
Electric dark correction enabled: true
Nonlinearity correction enabled: false
Boxcar width: 3
XAxis mode: Wavelengths
Number of Pixels in Spectrum: 3648
>>>>>Begin Spectral Data<<<<<
345.271	-0.00068139
345.487	-0.00234353
345.704	-0.00581866
345.921	0.00186443
346.137	0.01531145
346.354	0.01774081
346.571	0.08588301
346.787	0.07493329
347.004	-0.06333618
347.22	-0.10473654
347.437	0.04423768
347.653	0.20083934
347.87	-0.2977793
348.086	-0.69004828
348.303	0.4645011
348.519	0.31859421
348.736	0.30657339
348.952	0.3256939
349.169	0.34132277
349.385	0.36376561
349.601	0.3593429
349.818	0.35818434
350.034	0.35576823
350.251	0.35657585
350.467	0.35924264
350.683	0.34702381
350.9	0.34403474
351.116	0.34458261
351.332	0.34045167
351.549	0.35078823
351.765	0.3634736
351.981	0.3688591
352.197	0.3876423
352.414	0.40629736
352.63	0.41632002
352.846	0.43055573
353.062	0.42660991
353.278	0.42052434
353.495	0.43562138
353.711	0.43786709
353.927	0.43735409
354.143	0.43788553
354.359	0.43488811
354.575	0.43205292
354.792	0.44232303
355.008	0.42992741
355.224	0.42402066
355.44	0.41786534
355.656	0.41711876
355.872	0.42228404
356.088	0.4490848
356.304	0.45284087
356.52	0.46044131
356.736	0.46804834
356.952	0.48010623
357.168	0.48452915
357.384	0.49547115
357.6	0.47730016
357.816	0.4855512
358.032	0.49381767
358.248	0.50998944
358.464	0.50892831
358.679	0.51827912
358.895	0.51626423
359.111	0.528249
359.327	0.52096036
359.543	0.5276363
359.759	0.53183291
359.974	0.53418489
360.19	0.52987593
360.406	0.53306382
360.622	0.52777238
360.838	0.52598479
361.053	0.52922674
361.269	0.53106674
361.485	0.53620611
361.701	0.54569631
361.916	0.53926716
362.132	0.54541418
362.348	0.55177357
362.563	0.55534927
362.779	0.55112849
362.995	0.5567728
363.21	0.56324385
363.426	0.57136641
363.641	0.57532801
363.857	0.58387154
364.073	0.58216604
364.288	0.58155249
364.504	0.59319197
364.719	0.59320324
364.935	0.59582208
365.15	0.59894104
365.366	0.60187873
365.581	0.6101337
365.797	0.61530557
366.012	0.60558056
366.228	0.60073917
366.443	0.61338852
366.658	0.61649891
366.874	0.61370433
367.089	0.62019296
367.305	0.62634157
367.52	0.63444291
367.735	0.63860963
367.951	0.63148167
368.166	0.63666689
368.381	0.64898357
368.597	0.64701459
368.812	0.65325968
369.027	0.65743835
369.243	0.66389883
369.458	0.68230368
369.673	0.68666611
369.888	0.68778365
370.104	0.68404457
370.319	0.68963159
370.534	0.68659018
370.749	0.68597236
370.964	0.68251297
371.179	0.68074061
371.395	0.67608984
371.61	0.68519483
371.825	0.67474985
372.04	0.68048923
372.255	0.68263805
372.47	0.67779008
372.685	0.6737256
372.9	0.67443398
373.115	0.66771949
373.33	0.67714397
373.545	0.68024007
373.76	0.68789131
373.975	0.68877262
374.19	0.69226648
374.405	0.69915359
374.62	0.71561076
374.835	0.72709955
375.05	0.72835318
375.265	0.72999855
375.48	0.73797369
375.695	0.75658212
375.91	0.75474442
376.125	0.74263859
376.339	0.73031398
376.554	0.73306595
376.769	0.73523951
376.984	0.73549988
377.199	0.73717892
377.414	0.7400981
377.628	0.75275879
377.843	0.76390859
378.058	0.76912454
378.273	0.77580947
378.487	0.78207059
378.702	0.78424461
378.917	0.78984138
379.131	0.78684496
379.346	0.77884076
379.561	0.77501234
379.775	0.77181734
379.99	0.76667143
380.205	0.75843525
380.419	0.75077903
380.634	0.74483214
380.848	0.75501895
381.063	0.75915776
381.278	0.76954317
381.492	0.7693158
381.707	0.77983312
381.921	0.78621467
382.136	0.80103953
382.35	0.7972864
382.565	0.79510332
382.779	0.79404726
382.994	0.79908819
383.208	0.79406709
383.422	0.80596498
383.637	0.80543922
383.851	0.81523368
384.066	0.82528009
384.28	0.8298878
384.494	0.83533572
384.709	0.84403773
384.923	0.84329153
385.137	0.83951382
385.352	0.84074379
385.566	0.84540866
385.78	0.84510036
385.995	0.84198001
386.209	0.84056092
386.423	0.84695552
386.637	0.85644008
386.852	0.85253103
387.066	0.85024484
387.28	0.84870618
387.494	0.85902742
387.708	0.86159404
387.923	0.86066198
388.137	0.86436408
388.351	0.87109423
388.565	0.87955105
388.779	0.88461235
388.993	0.89619715
389.207	0.90310531
389.421	0.90764516
389.635	0.9039426
389.85	0.9042936
390.064	0.90615601
390.278	0.91095884
390.492	0.91042335
390.706	0.91279749
390.92	0.91461161
391.134	0.92558621
391.348	0.94029252
391.561	0.93676123
391.775	0.93523102
391.989	0.93152598
392.203	0.93647729
392.417	0.94232045
392.631	0.94900236
392.845	0.94288046
393.059	0.95603313
393.273	0.95834789
393.486	0.95383751
393.7	0.94728558
393.914	0.95325244
394.128	0.94989955
394.342	0.95037999
394.555	0.93859703
394.769	0.94141166
394.983	0.95015789
395.197	0.96109033
395.41	0.96026994
395.624	0.96599697
395.838	0.96730061
396.051	0.9883889
396.265	0.98720045
396.479	0.99135307
396.692	0.99243257
396.906	0.98631728
397.12	0.98588899
397.333	0.99533686
397.547	0.98911258
397.76	0.99785217
397.974	0.99975547
398.187	1.00314574
398.401	1.01670007
398.614	1.02073986
398.828	1.0220937
399.041	1.02404914
399.255	1.02435511
399.468	1.02745703
399.682	1.02851017
399.895	1.03172907
400.109	1.03092568
400.322	1.02803453
400.536	1.02353403
400.749	1.0333579
400.962	1.03614039
401.176	1.03618584
401.389	1.03383943
401.602	1.02601147
401.816	1.03434504
402.029	1.04206049
402.242	1.03678791
402.456	1.036441
402.669	1.03226928
402.882	1.0251987
403.095	1.04067814
403.309	1.0388976
403.522	1.04362264
403.735	1.04411006
403.948	1.04473086
404.161	1.06273145
404.375	1.06849681
404.588	1.07018127
404.801	1.07385906
405.014	1.06896385
405.227	1.08009194
405.44	1.08777549
405.653	1.08940991
405.866	1.08717208
406.079	1.08546786
406.293	1.08491261
406.506	1.08806593
406.719	1.08381679
406.932	1.08001365
407.145	1.07168452
407.358	1.08640571
407.571	1.08120973
407.784	1.08429834
407.996	1.08782219
408.209	1.08422136
408.422	1.0829809
408.635	1.08760386
408.848	1.08615805
409.061	1.08260301
409.274	1.08152513
409.487	1.08000605
409.7	1.08288481
409.912	1.08772528
410.125	1.08844864
410.338	1.08825762
410.551	1.09313879
410.764	1.09541863
410.976	1.09574184
411.189	1.09800556
411.402	1.09345567
411.615	1.09622393
411.827	1.09870848
412.04	1.10143742
412.253	1.09987183
412.465	1.09898137
412.678	1.09715985
412.891	1.10458404
413.103	1.09380905
413.316	1.08985762
413.529	1.09476992
413.741	1.10028422
413.954	1.10551805
414.166	1.10868323
414.379	1.10512286
414.591	1.11434292
414.804	1.11104449
415.016	1.10818728
415.229	1.10375441
415.441	1.09793716
415.654	1.09917417
415.866	1.10046755
416.079	1.10134593
416.291	1.10179092
416.504	1.10719737
416.716	1.10892557
416.928	1.11268254
417.141	1.10914158
417.353	1.11161892
417.566	1.10515576
417.778	1.10547855
417.99	1.09434638
418.203	1.08906227
418.415	1.08733414
418.627	1.08833272
418.839	1.08402474
419.052	1.09124231
419.264	1.09213179
419.476	1.09603189
419.688	1.09818926
419.901	1.09785935
420.113	1.09440241
420.325	1.09307956
420.537	1.08546445
420.749	1.08685752
420.961	1.08833693
421.174	1.08711626
421.386	1.08305834
421.598	1.08194231
421.81	1.08015195
422.022	1.07934556
422.234	1.07726849
422.446	1.07219333
422.658	1.06936829
422.87	1.0704828
423.082	1.06961894
423.294	1.06825623
423.506	1.06945313
423.718	1.0661926
423.93	1.0622527
424.142	1.05934346
424.354	1.05455759
424.566	1.05162423
424.778	1.05128268
424.99	1.04649616
425.202	1.04234636
425.414	1.04331189
425.625	1.04517129
425.837	1.04166351
426.049	1.04209935
426.261	1.03705598
426.473	1.03338765
426.684	1.03267452
426.896	1.03250815
427.108	1.02651838
427.32	1.02847652
427.531	1.02424228
427.743	1.02310902
427.955	1.02584462
428.167	1.02243942
428.378	1.0172208
428.59	1.01556428
428.802	1.01166966
429.013	1.00810987
429.225	1.00408025
429.436	0.99829086
429.648	0.99715024
429.86	0.99671176
430.071	0.99467755
430.283	0.99307195
430.494	0.98983969
430.706	0.98831004
430.917	0.98511416
431.129	0.98170851
431.34	0.97624248
431.552	0.97458855
431.763	0.96924055
431.975	0.96909882
432.186	0.96382342
432.398	0.96072989
432.609	0.9531492
432.821	0.95126925
433.032	0.94635399
433.243	0.94212109
433.455	0.93763156
433.666	0.93565755
433.877	0.93450863
434.089	0.931665
434.3	0.92615416
434.511	0.92038131
434.723	0.91737506
434.934	0.91115897
435.145	0.90454888
435.356	0.89720407
435.568	0.894998
435.779	0.88996703
435.99	0.88491622
436.201	0.8800885
436.412	0.87666837
436.624	0.87574697
436.835	0.87416283
437.046	0.87150056
437.257	0.86925721
437.468	0.86956919
437.679	0.86772363
437.89	0.86427591
438.101	0.86096432
438.312	0.85698428
438.523	0.85259977
438.734	0.84901983
438.945	0.84470398
439.156	0.8387821
439.367	0.83577232
439.578	0.83242528
439.789	0.82668191
440	0.82327999
440.211	0.8179912
440.422	0.81355905
440.633	0.81149126
440.844	0.80577044
441.055	0.80051607
441.266	0.79815194
441.477	0.79236485
441.687	0.78871912
441.898	0.78457283
442.109	0.77894573
442.32	0.77523203
442.531	0.76919491
442.741	0.76209513
442.952	0.75783526
443.163	0.75387074
443.374	0.74821592
443.584	0.74377029
443.795	0.73949305
444.006	0.7361965
444.216	0.73248109
444.427	0.72741343
444.638	0.72255165
444.848	0.71839488
445.059	0.71362957
445.27	0.70850329
445.48	0.70332742
445.691	0.69921405
445.901	0.69571715
446.112	0.69156928
446.323	0.68643976
446.533	0.68190227
446.744	0.67712037
446.954	0.67249923
447.165	0.66794286
447.375	0.66396506
447.586	0.65958061
447.796	0.65576468
448.006	0.651277
448.217	0.64799694
448.427	0.6438461
448.638	0.63898099
448.848	0.6335385
449.058	0.62864709
449.269	0.62410089
449.479	0.61988955
449.689	0.61491199
449.9	0.61054373
450.11	0.60608055
450.32	0.60269849
450.531	0.59806766
450.741	0.59323434
450.951	0.58892826
451.161	0.58429427
451.372	0.5800685
451.582	0.57751991
451.792	0.57255293
452.002	0.56833123
452.212	0.56398404
452.422	0.56010865
452.633	0.55591816
452.843	0.5521358
453.053	0.54607193
453.263	0.54239763
453.473	0.53825586
453.683	0.53497502
453.893	0.53009209
454.103	0.52660057
454.313	0.52235409
454.523	0.5188804
454.733	0.5145695
454.943	0.51107234
455.153	0.50717177
455.363	0.50344275
455.573	0.49935328
455.783	0.4956512
455.993	0.491458
456.203	0.48807831
456.413	0.48404563
456.623	0.47992124
456.833	0.47684665
457.042	0.47278128
457.252	0.46879124
457.462	0.4649779
457.672	0.46120068
457.882	0.45758246
458.091	0.45386644
458.301	0.44964818
458.511	0.44615529
458.721	0.44243974
458.931	0.43890287
459.14	0.43523207
459.35	0.43200896
459.56	0.42874846
459.769	0.42568181
459.979	0.42228585
460.189	0.41902176
460.398	0.41567519
460.608	0.41266749
460.817	0.40923837
461.027	0.40585215
461.237	0.40225991
461.446	0.39884566
461.656	0.39591675
461.865	0.39276506
462.075	0.38952938
462.284	0.38661276
462.494	0.38351242
462.703	0.38022706
462.913	0.37738112
463.122	0.3742547
463.332	0.37134554
463.541	0.36860047
463.751	0.36543459
463.96	0.3626775
464.169	0.36001215
464.379	0.35739137
464.588	0.35455253
464.797	0.35169986
465.007	0.34865241
465.216	0.34606716
465.425	0.34347212
465.635	0.34095271
465.844	0.33826642
466.053	0.33564298
466.263	0.33314133
466.472	0.33058009
466.681	0.32799752
466.89	0.32538089
467.099	0.32276243
467.309	0.32019211
467.518	0.31796075
467.727	0.31553657
467.936	0.31322945
468.145	0.31092604
468.354	0.30869481
468.563	0.3064696
468.772	0.30424802
468.982	0.3020543
469.191	0.30010863
469.4	0.2978902
469.609	0.29574596
469.818	0.29375083
470.027	0.29165395
470.236	0.28952643
470.445	0.28746623
470.654	0.2851419
470.863	0.28311764
471.072	0.28116162
471.28	0.27897237
471.489	0.27714269
471.698	0.27535675
471.907	0.27356707
472.116	0.27189491
472.325	0.27013796
472.534	0.26851446
472.743	0.26669655
472.951	0.26505578
473.16	0.26343469
473.369	0.26168733
473.578	0.26013811
473.786	0.25860201
473.995	0.2569515
474.204	0.255677
474.413	0.25404664
474.621	0.25248447
474.83	0.25125353
475.039	0.24979813
475.247	0.24832701
475.456	0.24696201
475.665	0.2454699
475.873	0.24404779
476.082	0.24243319
476.291	0.24092812
476.499	0.23966894
476.708	0.23828437
476.916	0.23709067
477.125	0.23591737
477.333	0.23471091
477.542	0.23372625
477.75	0.23239588
477.959	0.231146
478.167	0.23015616
478.376	0.22878428
478.584	0.22763365
478.793	0.22668505
479.001	0.22562836
479.209	0.22467047
479.418	0.22368932
479.626	0.22265549
479.834	0.22176881
480.043	0.2207338
480.251	0.21976505
480.459	0.21886425
480.668	0.21816593
480.876	0.21740811
481.084	0.2166117
481.293	0.21579861
481.501	0.21503937
481.709	0.21429459
481.917	0.21353234
482.125	0.21277167
482.334	0.21201378
482.542	0.21133633
482.75	0.21076427
482.958	0.21022372
483.166	0.20953945
483.374	0.20895573
483.583	0.2083359
483.791	0.20766526
483.999	0.20705873
484.207	0.20646961
484.415	0.20589253
484.623	0.20534462
484.831	0.20469416
485.039	0.20420984
485.247	0.20386981
485.455	0.2032796
485.663	0.20274418
485.871	0.2023212
486.079	0.2018335
486.287	0.20150216
486.495	0.2010827
486.702	0.20051818
486.91	0.2001848
487.118	0.19982622
487.326	0.19940296
487.534	0.19912883
487.742	0.1989043
487.95	0.19860347
488.157	0.19840519
488.365	0.19821381
488.573	0.19802819
488.781	0.19793971
488.988	0.19780484
489.196	0.19759703
489.404	0.19743012
489.612	0.19733859
489.819	0.19734637
490.027	0.19733861
490.235	0.19718382
490.442	0.19714043
490.65	0.1970391
490.857	0.1971737
491.065	0.19718578
491.273	0.19710994
491.48	0.19707799
491.688	0.19713782
491.895	0.19719261
492.103	0.19729361
492.31	0.19728005
492.518	0.19728206
492.725	0.19731317
492.933	0.1973954
493.14	0.19744481
493.348	0.19749775
493.555	0.19756871
493.763	0.1975787
493.97	0.19775265
494.177	0.19797649
494.385	0.1981746
494.592	0.19835443
494.8	0.19847417
495.007	0.19882468
495.214	0.19917767
495.422	0.19944668
495.629	0.19973628
495.836	0.19996862
496.043	0.2003303
496.251	0.20071743
496.458	0.20093596
496.665	0.2012111
496.872	0.20150527
497.08	0.20178183
497.287	0.20206187
497.494	0.20240274
497.701	0.20271911
497.908	0.20303413
498.115	0.20330344
498.322	0.20366218
498.53	0.2040169
498.737	0.20445096
498.944	0.20478939
499.151	0.20521479
499.358	0.20566237
499.565	0.20611478
499.772	0.2065337
499.979	0.20702754
500.186	0.20754566
500.393	0.20802689
500.6	0.20854318
500.807	0.20908784
501.014	0.20969434
501.221	0.2103007
501.427	0.21084417
501.634	0.21137777
501.841	0.21199412
502.048	0.21253164
502.255	0.21297628
502.462	0.21347791
502.669	0.21399414
502.875	0.21450447
503.082	0.21495412
503.289	0.21538948
503.496	0.21595359
503.702	0.21662724
503.909	0.21728283
504.116	0.21795348
504.323	0.2186691
504.529	0.21936904
504.736	0.2200895
504.943	0.22079009
505.149	0.22154757
505.356	0.22232616
505.563	0.22306937
505.769	0.22384125
505.976	0.22465501
506.182	0.22548321
506.389	0.22623402
506.595	0.22700674
506.802	0.2277942
507.008	0.22856465
507.215	0.22927182
507.421	0.23006655
507.628	0.23082612
507.834	0.23161292
508.041	0.23234782
508.247	0.23309983
508.454	0.23393198
508.66	0.23473887
508.866	0.23553908
509.073	0.23643169
509.279	0.2373623
509.486	0.23819596
509.692	0.23899109
509.898	0.23981439
510.105	0.24075123
510.311	0.24159951
510.517	0.24247927
510.723	0.24334469
510.93	0.24425533
511.136	0.24518784
511.342	0.24612788
511.548	0.24701038
511.754	0.24801905
511.961	0.24893603
512.167	0.24987822
512.373	0.25087192
512.579	0.25190326
512.785	0.25286491
512.991	0.2538445
513.197	0.25488596
513.404	0.25597491
513.61	0.25704675
513.816	0.25807157
514.022	0.25902029
514.228	0.2600467
514.434	0.26110173
514.64	0.26206658
514.846	0.26306333
515.052	0.26398385
515.258	0.26497876
515.464	0.26608083
515.669	0.26721507
515.875	0.26836245
516.081	0.26951706
516.287	0.27068405
516.493	0.27199591
516.699	0.27323352
516.905	0.27439717
517.111	0.27546716
517.316	0.27658897
517.522	0.27772976
517.728	0.27887642
517.934	0.28000699
518.139	0.28114084
518.345	0.28230062
518.551	0.28344925
518.757	0.28455234
518.962	0.28570189
519.168	0.28692605
519.374	0.28803303
519.579	0.28924069
519.785	0.29050016
519.991	0.29185656
520.196	0.29311041
520.402	0.29430343
520.607	0.29553711
520.813	0.29683092
521.018	0.29806393
521.224	0.29919285
521.429	0.30044584
521.635	0.30174904
521.84	0.30299184
522.046	0.30422906
522.251	0.30545033
522.457	0.30668801
522.662	0.308098
522.868	0.30936358
523.073	0.31061658
523.279	0.31203923
523.484	0.31331526
523.689	0.31475515
523.895	0.31620591
524.1	0.31756343
524.305	0.31896452
524.511	0.32040086
524.716	0.3218124
524.921	0.32327058
525.126	0.32464588
525.332	0.32601966
525.537	0.327319
525.742	0.32866806
525.947	0.33006937
526.153	0.33139453
526.358	0.33269866
526.563	0.33404617
526.768	0.33544805
526.973	0.3369832
527.178	0.33851716
527.383	0.33991317
527.588	0.34136082
527.794	0.34283624
527.999	0.344334
528.204	0.34577709
528.409	0.34714307
528.614	0.3485803
528.819	0.35005974
529.024	0.35138955
529.229	0.35281046
529.434	0.35429283
529.639	0.35579084
529.843	0.35737232
530.048	0.35889323
530.253	0.36044001
530.458	0.36216739
530.663	0.36378348
530.868	0.36536633
531.073	0.36685304
531.278	0.36830013
531.482	0.36975135
531.687	0.37129152
531.892	0.37281248
532.097	0.3743249
532.302	0.37587351
532.506	0.37750932
532.711	0.37910201
532.916	0.38073794
533.12	0.38233388
533.325	0.38389176
533.53	0.38560248
533.734	0.38729875
533.939	0.38894703
534.144	0.39073315
534.348	0.39243619
534.553	0.39411917
534.757	0.3957795
534.962	0.3973711
535.167	0.39894329
535.371	0.40049051
535.576	0.40210996
535.78	0.40368238
535.985	0.40530891
536.189	0.40688238
536.394	0.40854971
536.598	0.41024899
536.803	0.41196994
537.007	0.41358977
537.211	0.4153282
537.416	0.4169478
537.62	0.41864815
537.825	0.42023675
538.029	0.42203702
538.233	0.42367976
538.438	0.42544711
538.642	0.42713599
538.846	0.42897841
539.05	0.43073798
539.255	0.43246709
539.459	0.43407285
539.663	0.43587087
539.867	0.43755257
540.072	0.43925651
540.276	0.4409627
540.48	0.44281133
540.684	0.44461925
540.888	0.44653802
541.092	0.44828724
541.297	0.45005999
541.501	0.45183534
541.705	0.45359778
541.909	0.45526737
542.113	0.45699517
542.317	0.45870317
542.521	0.46049102
542.725	0.46225391
542.929	0.46399471
543.133	0.46573184
543.337	0.46760871
543.541	0.46939468
543.745	0.47106381
543.949	0.47285981
544.153	0.47457736
544.357	0.47636213
544.56	0.47822015
544.764	0.48000738
544.968	0.48181264
545.172	0.48361004
545.376	0.48550236
545.58	0.48742135
545.783	0.48938066
545.987	0.49116443
546.191	0.49293746
546.395	0.49483843
546.598	0.49686994
546.802	0.49872092
547.006	0.50060187
547.21	0.50218899
547.413	0.5040442
547.617	0.50599844
547.821	0.50785447
548.024	0.50970408
548.228	0.51147993
548.431	0.51329435
548.635	0.51521329
548.839	0.51696168
549.042	0.51875713
549.246	0.52051933
549.449	0.522242
549.653	0.52409377
549.856	0.52592071
550.06	0.52772978
550.263	0.52973595
550.467	0.53164382
550.67	0.53366245
550.874	0.53560093
551.077	0.5375511
551.28	0.53956517
551.484	0.54158278
551.687	0.54345172
551.891	0.54539755
552.094	0.54730673
552.297	0.54928371
552.501	0.55124012
552.704	0.5531952
552.907	0.55502914
553.11	0.55689512
553.314	0.55867475
553.517	0.56030798
553.72	0.56210857
553.923	0.56392389
554.127	0.56578672
554.33	0.56768067
554.533	0.56965539
554.736	0.57143985
554.939	0.57342971
555.142	0.57532335
555.345	0.57717402
555.549	0.5790856
555.752	0.58097454
555.955	0.58278738
556.158	0.58480103
556.361	0.58665873
556.564	0.58854838
556.767	0.59056771
556.97	0.59249238
557.173	0.59443668
557.376	0.59649489
557.579	0.59838248
557.782	0.60030248
557.984	0.60227029
558.187	0.60411235
558.39	0.60596427
558.593	0.60789975
558.796	0.60969955
558.999	0.61146584
559.202	0.6133432
559.404	0.61508301
559.607	0.61692339
559.81	0.61877369
560.013	0.62053905
560.216	0.6223521
560.418	0.6243671
560.621	0.62621838
560.824	0.62821422
561.026	0.63008707
561.229	0.63196183
561.432	0.63378965
561.634	0.63571032
561.837	0.63746346
562.04	0.63928222
562.242	0.64108598
562.445	0.64288085
562.647	0.64475093
562.85	0.64647014
563.053	0.64819762
563.255	0.65006562
563.458	0.65189232
563.66	0.65375711
563.863	0.65569583
564.065	0.65760149
564.268	0.65965696
564.47	0.6615641
564.672	0.6633507
564.875	0.66529075
565.077	0.66713224
565.28	0.66882444
565.482	0.67067448
565.684	0.67242015
565.887	0.6742807
566.089	0.67628919
566.291	0.67802821
566.494	0.67980262
566.696	0.68163918
566.898	0.68348719
567.1	0.68541257
567.303	0.68720336
567.505	0.68893447
567.707	0.69059219
567.909	0.6922583
568.111	0.69405058
568.314	0.69571067
568.516	0.69738968
568.718	0.69914614
568.92	0.70086279
569.122	0.70273514
569.324	0.70460912
569.526	0.70626626
569.728	0.70814994
569.93	0.70991389
570.132	0.71168183
570.334	0.71347554
570.536	0.71514331
570.738	0.71690486
570.94	0.71864934
571.142	0.72039053
571.344	0.7219427
571.546	0.72353935
571.748	0.72523502
571.95	0.72675999
572.152	0.72835758
572.354	0.73007282
572.555	0.73172664
572.757	0.73362638
572.959	0.73533643
573.161	0.7368478
573.363	0.7388593
573.564	0.74077641
573.766	0.74233425
573.968	0.74401395
574.17	0.7453569
574.371	0.74701216
574.573	0.74861679
574.775	0.75005612
574.976	0.75150662
575.178	0.7531304
575.38	0.75447203
575.581	0.75607103
575.783	0.75763861
575.985	0.75928491
576.186	0.76103186
576.388	0.76259549
576.589	0.7641075
576.791	0.76585936
576.992	0.76753182
577.194	0.76909975
577.395	0.77055188
577.597	0.77204811
577.798	0.77362962
578	0.77528857
578.201	0.7767996
578.402	0.77844331
578.604	0.77988871
578.805	0.78151344
579.007	0.78292659
579.208	0.78438254
579.409	0.78578991
579.611	0.7870303
579.812	0.78849514
580.013	0.78999599
580.215	0.79126889
580.416	0.79268823
580.617	0.794067
580.818	0.79566371
581.019	0.79722123
581.221	0.79859569
581.422	0.80004975
581.623	0.80168855
581.824	0.80294382
582.025	0.80431377
582.226	0.80560747
582.428	0.80710727
582.629	0.80846589
582.83	0.80967575
583.031	0.81091115
583.232	0.81257621
583.433	0.81407247
583.634	0.81529226
583.835	0.81655738
584.036	0.81778905
584.237	0.81919738
584.438	0.82051289
584.639	0.82140012
584.84	0.82257606
585.041	0.82369408
585.242	0.824727
585.442	0.82592624
585.643	0.82722782
585.844	0.8284304
586.045	0.82995892
586.246	0.83099793
586.447	0.8322601
586.647	0.83344792
586.848	0.83456762
587.049	0.83559265
587.25	0.83660871
587.45	0.83746957
587.651	0.8386541
587.852	0.83983308
588.053	0.84118738
588.253	0.84231164
588.454	0.84358733
588.655	0.84470169
588.855	0.84588841
589.056	0.84697448
589.256	0.84817314
589.457	0.84901306
589.658	0.8501877
589.858	0.85095827
590.059	0.85215541
590.259	0.8532765
590.46	0.85410958
590.66	0.85497935
590.861	0.85603345
591.061	0.85686894
591.262	0.85808284
591.462	0.8590795
591.662	0.86003384
591.863	0.86104814
592.063	0.86210073
592.264	0.86298292
592.464	0.86406071
592.664	0.86493912
592.865	0.86583448
593.065	0.86645857
593.265	0.86752389
593.465	0.86814442
593.666	0.86893572
593.866	0.86967105
594.066	0.87036925
594.266	0.87100611
594.467	0.87161858
594.667	0.87227279
594.867	0.87306312
595.067	0.87376911
595.267	0.87434789
595.467	0.87500738
595.668	0.87576603
595.868	0.87678816
596.068	0.8775373
596.268	0.87828438
596.468	0.87907442
596.668	0.88013554
596.868	0.8807215
597.068	0.88155687
597.268	0.88232756
597.468	0.88285081
597.668	0.88343621
597.868	0.88398693
598.068	0.88438451
598.268	0.885153
598.467	0.88568489
598.667	0.88629566
598.867	0.88689261
599.067	0.88763039
599.267	0.88822254
599.467	0.88870969
599.667	0.88903513
599.866	0.88958036
600.066	0.88997237
600.266	0.89041251
600.466	0.89074361
600.665	0.89114943
600.865	0.89148476
601.065	0.89216441
601.264	0.89236639
601.464	0.89281102
601.664	0.89353002
601.863	0.89407037
602.063	0.89460808
602.263	0.89491411
602.462	0.89531877
602.662	0.89590605
602.861	0.89618814
603.061	0.89647229
603.26	0.89683648
603.46	0.89709294
603.659	0.89767424
603.859	0.8980272
604.058	0.8982754
604.258	0.89872332
604.457	0.89925004
604.657	0.89941014
604.856	0.89957995
605.056	0.89987127
605.255	0.90003487
605.454	0.90019567
605.654	0.90034569
605.853	0.90023263
606.052	0.90039597
606.252	0.90071883
606.451	0.90089047
606.65	0.90121806
606.849	0.9011734
607.049	0.90126929
607.248	0.9013496
607.447	0.9015541
607.646	0.90183998
607.845	0.90190648
608.045	0.9017906
608.244	0.90228763
608.443	0.90237809
608.642	0.90263575
608.841	0.90269547
609.04	0.90253371
609.239	0.9027006
609.438	0.9027719
609.637	0.90264573
609.836	0.90275855
610.035	0.90269288
610.234	0.90280034
610.433	0.90287481
610.632	0.90287259
610.831	0.9028037
611.03	0.90275876
611.229	0.90284933
611.428	0.90290501
611.627	0.90277157
611.826	0.90256961
612.025	0.90252854
612.224	0.90247115
612.422	0.90232153
612.621	0.90189244
612.82	0.90166185
613.019	0.90149244
613.218	0.90140021
613.416	0.90098296
613.615	0.90084714
613.814	0.90059183
614.012	0.90044371
614.211	0.9000652
614.41	0.89982182
614.608	0.89963758
614.807	0.89944657
615.006	0.89918025
615.204	0.89891918
615.403	0.89889646
615.602	0.8987949
615.8	0.89842511
615.999	0.89779867
616.197	0.89737561
616.396	0.89696512
616.594	0.89649786
616.793	0.8959429
616.991	0.89528744
617.19	0.89479816
617.388	0.89470899
617.586	0.89436159
617.785	0.89395516
617.983	0.89365785
618.182	0.8932014
618.38	0.89284955
618.578	0.89243145
618.777	0.89193513
618.975	0.89166014
619.173	0.89116774
619.372	0.890767
619.57	0.89028474
619.768	0.88989583
619.966	0.88941862
620.165	0.88862092
620.363	0.88801129
620.561	0.88728411
620.759	0.88658165
620.957	0.88605487
621.155	0.88532597
621.354	0.88489811
621.552	0.88473742
621.75	0.88397428
621.948	0.88362091
622.146	0.88298911
622.344	0.88210562
622.542	0.88158777
622.74	0.8805443
622.938	0.87967776
623.136	0.87917757
623.334	0.87851995
623.532	0.87778557
623.73	0.87740611
623.928	0.87677618
624.126	0.8763962
624.324	0.8758683
624.522	0.87490654
624.719	0.87389025
624.917	0.87327788
625.115	0.87233789
625.313	0.87174166
625.511	0.87109004
625.708	0.8701412
625.906	0.86951451
626.104	0.86884814
626.302	0.86812661
626.499	0.86745002
626.697	0.86643632
626.895	0.86528742
627.093	0.86450391
627.29	0.8637308
627.488	0.86285236
627.686	0.86201813
627.883	0.86096749
628.081	0.85985076
628.278	0.85926385
628.476	0.85825553
628.673	0.85725296
628.871	0.85645155
629.068	0.85541326
629.266	0.85445228
629.463	0.85368883
629.661	0.85255776
629.858	0.85159363
630.056	0.8506601
630.253	0.84984375
630.451	0.84889161
630.648	0.84780856
630.845	0.84685568
631.043	0.84588553
631.24	0.84514503
631.438	0.84413811
631.635	0.84300938
631.832	0.84182948
632.029	0.84109205
632.227	0.83997312
632.424	0.83898456
632.621	0.83770667
632.818	0.83664809
633.016	0.83550646
633.213	0.83455022
633.41	0.83331947
633.607	0.83219841
633.804	0.83100721
634.001	0.82978186
634.199	0.828459
634.396	0.82727775
634.593	0.82586949
634.79	0.82489103
634.987	0.82373349
635.184	0.82262342
635.381	0.82153929
635.578	0.82052953
635.775	0.81934935
635.972	0.81848604
636.169	0.81719943
636.366	0.81609175
636.563	0.81488929
636.76	0.81366411
636.957	0.81257037
637.153	0.81126058
637.35	0.81010122
637.547	0.80892213
637.744	0.80759528
637.941	0.8064814
638.138	0.80523827
638.334	0.80389514
638.531	0.80283522
638.728	0.80149442
638.925	0.80034714
639.121	0.7992223
639.318	0.79775388
639.515	0.79641604
639.711	0.79519649
639.908	0.7936383
640.105	0.79224803
640.301	0.79076968
640.498	0.78927388
640.695	0.78814263
640.891	0.78691312
641.088	0.78557853
641.284	0.78443615
641.481	0.78319516
641.677	0.78179257
641.874	0.78038075
642.07	0.77894886
642.267	0.77769637
642.463	0.77621468
642.66	0.77489107
642.856	0.77333156
643.053	0.77182361
643.249	0.7704293
643.445	0.76899217
643.642	0.76734894
643.838	0.76600772
644.034	0.76457195
644.231	0.76322892
644.427	0.76195327
644.623	0.76058313
644.82	0.75914902
645.016	0.75760321
645.212	0.75594334
645.408	0.75437864
645.604	0.7530449
645.801	0.75166276
645.997	0.75012213
646.193	0.74861456
646.389	0.74737424
646.585	0.74606134
646.781	0.74460318
646.977	0.7432039
647.173	0.74161755
647.37	0.74026835
647.566	0.73883691
647.762	0.73741144
647.958	0.73611272
648.154	0.73454321
648.35	0.73295884
648.546	0.73131671
648.742	0.72975583
648.937	0.72801284
649.133	0.72641062
649.329	0.72468797
649.525	0.72311025
649.721	0.72136624
649.917	0.7199765
650.113	0.71821865
650.309	0.71690039
650.504	0.71525799
650.7	0.71366749
650.896	0.71206486
651.092	0.7105877
651.287	0.70886488
651.483	0.70743655
651.679	0.70580236
651.875	0.70434588
652.07	0.70285864
652.266	0.70150901
652.462	0.70005464
652.657	0.69861266
652.853	0.69700284
653.048	0.69538966
653.244	0.69362304
653.44	0.69194251
653.635	0.69005864
653.831	0.6883808
654.026	0.68687233
654.222	0.68526569
654.417	0.68377053
654.613	0.68219782
654.808	0.68047133
655.004	0.67896244
655.199	0.67719057
655.394	0.67539159
655.59	0.67373727
655.785	0.67188365
655.98	0.6701883
656.176	0.66847678
656.371	0.66696283
656.566	0.66547352
656.762	0.66376606
656.957	0.66209877
657.152	0.66049755
657.348	0.65889193
657.543	0.65731886
657.738	0.65550006
657.933	0.65368581
658.128	0.6519793
658.324	0.65014769
658.519	0.64851097
658.714	0.64677528
658.909	0.64497141
659.104	0.64333722
659.299	0.64168729
659.494	0.64010775
659.689	0.63862517
659.884	0.63675302
660.079	0.63486428
660.274	0.633119
660.469	0.63130464
660.664	0.62957823
660.859	0.62775763
661.054	0.6259936
661.249	0.62437724
661.444	0.62277662
661.639	0.62101959
661.834	0.61925834
662.029	0.61752436
662.224	0.61574827
662.418	0.61396233
662.613	0.61228822
662.808	0.61053442
663.003	0.60896879
663.198	0.60726208
663.392	0.6053816
663.587	0.60378121
663.782	0.60182371
663.977	0.59988082
664.171	0.59810922
664.366	0.59620734
664.561	0.59445453
664.755	0.59275605
664.95	0.59098559
665.144	0.58942492
665.339	0.58793321
665.534	0.58637475
665.728	0.58478042
665.923	0.58312892
666.117	0.58148873
666.312	0.5798315
666.506	0.57820935
666.701	0.57634485
666.895	0.57458303
667.09	0.57277756
667.284	0.57114737
667.479	0.5694681
667.673	0.56771881
667.867	0.56595487
668.062	0.56426722
668.256	0.56252447
668.45	0.56099946
668.645	0.5591965
668.839	0.55745218
669.033	0.55563409
669.228	0.55388019
669.422	0.55223713
669.616	0.55048579
669.81	0.54879382
670.004	0.54711401
670.199	0.54548878
670.393	0.54393359
670.587	0.54228519
670.781	0.54060052
670.975	0.53891184
671.169	0.53701021
671.363	0.53523619
671.558	0.53340334
671.752	0.53164176
671.946	0.53001858
672.14	0.52838198
672.334	0.52674575
672.528	0.52523154
672.722	0.52350428
672.916	0.52193207
673.11	0.5201817
673.304	0.51854106
673.497	0.51657436
673.691	0.51484495
673.885	0.51289568
674.079	0.51116515
674.273	0.50925992
674.467	0.5075746
674.661	0.50573481
674.854	0.50410679
675.048	0.50233619
675.242	0.50083157
675.436	0.49915803
675.629	0.4974533
675.823	0.49561355
676.017	0.49394888
676.211	0.49226015
676.404	0.4906182
676.598	0.48886219
676.792	0.48721457
676.985	0.48565326
677.179	0.4839519
677.372	0.48222346
677.566	0.48048005
677.76	0.47868973
677.953	0.47684425
678.147	0.47509407
678.34	0.47344997
678.534	0.47185753
678.727	0.47025653
678.921	0.46870113
679.114	0.46716717
679.307	0.46570196
679.501	0.46411449
679.694	0.46242828
679.888	0.46074807
680.081	0.45912771
680.274	0.45732002
680.468	0.45564357
680.661	0.45385751
680.854	0.45221529
681.048	0.45046384
681.241	0.4486638
681.434	0.44689358
681.627	0.44520284
681.821	0.44343842
682.014	0.44184702
682.207	0.44018827
682.4	0.43862916
682.593	0.43715384
682.786	0.43557799
682.98	0.43403494
683.173	0.43248598
683.366	0.43084906
683.559	0.42923366
683.752	0.4276194
683.945	0.42598668
684.138	0.42441709
684.331	0.42275232
684.524	0.42122118
684.717	0.41953201
684.91	0.41791551
685.103	0.41627986
685.296	0.41457465
685.489	0.41284394
685.682	0.4112113
685.874	0.40957459
686.067	0.4080076
686.26	0.40644943
686.453	0.40485586
686.646	0.40330723
686.839	0.40189972
687.031	0.40044406
687.224	0.39894607
687.417	0.39765073
687.61	0.39616452
687.802	0.39471642
687.995	0.39335403
688.188	0.39182637
688.38	0.39022987
688.573	0.3886044
688.766	0.38694089
688.958	0.38529212
689.151	0.38364554
689.343	0.38205255
689.536	0.38037424
689.729	0.37877342
689.921	0.37724202
690.114	0.37559578
690.306	0.37405061
690.499	0.37257714
690.691	0.37105643
690.884	0.36961661
691.076	0.36826529
691.268	0.3667838
691.461	0.36533227
691.653	0.36398278
691.846	0.36257698
692.038	0.36112331
692.23	0.35955031
692.423	0.35796019
692.615	0.35646847
692.807	0.3549746
692.999	0.35340556
693.192	0.35183908
693.384	0.35036453
693.576	0.34906458
693.768	0.34778605
693.961	0.34636639
694.153	0.34501161
694.345	0.34363991
694.537	0.34226107
694.729	0.34095698
694.921	0.33948912
695.113	0.33799132
695.305	0.33647626
695.498	0.33489171
695.69	0.33337801
695.882	0.3318257
696.074	0.3302285
696.266	0.32872061
696.458	0.32726269
696.65	0.32593818
696.842	0.32468589
697.033	0.32342577
697.225	0.32213109
697.417	0.32086012
697.609	0.31940198
697.801	0.31795872
697.993	0.31647727
698.185	0.314943
698.376	0.31339206
698.568	0.31188324
698.76	0.31039299
698.952	0.30898059
699.144	0.30754643
699.335	0.30617622
699.527	0.30486895
699.719	0.3035174
699.91	0.3022027
700.102	0.30085286
700.294	0.29967349
700.485	0.29846836
700.677	0.29720806
700.869	0.29606609
701.06	0.2948147
701.252	0.29354774
701.443	0.29228911
701.635	0.29094355
701.826	0.28960957
702.018	0.28827507
702.209	0.28687219
702.401	0.28550655
702.592	0.28426062
702.784	0.28298621
702.975	0.28175815
703.166	0.2806153
703.358	0.27938682
703.549	0.27814926
703.741	0.276956
703.932	0.27566598
704.123	0.27441188
704.315	0.27315233
704.506	0.27188151
704.697	0.27062864
704.888	0.26956407
705.08	0.26847266
705.271	0.26742674
705.462	0.26625692
705.653	0.26501033
705.844	0.26373089
706.035	0.2625052
706.227	0.2610983
706.418	0.25971718
706.609	0.25831359
706.8	0.2570781
706.991	0.25583087
707.182	0.25472798
707.373	0.25350869
707.564	0.25240642
707.755	0.25122113
707.946	0.25010208
708.137	0.24887207
708.328	0.24772747
708.519	0.24652761
708.71	0.2454019
708.901	0.24421643
709.092	0.24314205
709.283	0.24201336
709.473	0.24092631
709.664	0.23990588
709.855	0.23880689
710.046	0.2377562
710.237	0.23655946
710.427	0.23531313
710.618	0.23412125
710.809	0.23291768
711	0.23166527
711.19	0.23041716
711.381	0.22917815
711.572	0.2279751
711.762	0.22688881
711.953	0.22585628
712.144	0.22479549
712.334	0.22379724
712.525	0.22279813
712.715	0.22179539
712.906	0.22076451
713.097	0.21971237
713.287	0.21863132
713.478	0.21755438
713.668	0.21649979
713.859	0.21550152
714.049	0.21453416
714.239	0.21366258
714.43	0.21265758
714.62	0.21164255
714.811	0.21063793
715.001	0.2096843
715.191	0.20861656
715.382	0.20749962
715.572	0.20654561
715.762	0.2056656
715.953	0.20478169
716.143	0.20387406
716.333	0.20292651
716.523	0.20211046
716.714	0.20134492
716.904	0.20043483
717.094	0.19952011
717.284	0.19856443
717.474	0.1975715
717.664	0.1965709
717.855	0.1955216
718.045	0.1944979
718.235	0.19350226
718.425	0.19262565
718.615	0.19171771
718.805	0.1908685
718.995	0.18995188
719.185	0.18906189
719.375	0.18812056
719.565	0.1871573
719.755	0.18611476
719.945	0.18509266
720.135	0.1841191
720.325	0.18316711
720.515	0.18227205
720.704	0.18143969
720.894	0.18068879
721.084	0.1799071
721.274	0.17916865
721.464	0.1783422
721.654	0.17763986
721.843	0.1767857
722.033	0.17594167
722.223	0.17500068
722.413	0.17420721
722.602	0.17329095
722.792	0.17242435
722.982	0.17151108
723.171	0.1706925
723.361	0.16978108
723.55	0.16895707
723.74	0.1679745
723.93	0.16717972
724.119	0.16634582
724.309	0.16551654
724.498	0.16473101
724.688	0.16401748
724.877	0.16322434
725.067	0.16245183
725.256	0.16162086
725.446	0.16082411
725.635	0.15996273
725.825	0.15911733
726.014	0.15824578
726.203	0.15735055
726.393	0.15651733
726.582	0.15564037
726.771	0.15483416
726.961	0.15410137
727.15	0.15336971
727.339	0.15256668
727.529	0.1518217
727.718	0.15102205
727.907	0.15024863
728.096	0.14942617
728.286	0.14854903
728.475	0.14762785
728.664	0.14677938
728.853	0.145987
729.042	0.14518675
729.231	0.14439591
729.42	0.14365316
729.609	0.14289221
729.799	0.14209683
729.988	0.14136415
730.177	0.14058313
730.366	0.13979111
730.555	0.13905875
730.744	0.13826364
730.933	0.13753738
731.122	0.13683622
731.31	0.13610286
731.499	0.13533696
731.688	0.1346268
731.877	0.13392483
732.066	0.13331416
732.255	0.1327058
732.444	0.13205457
732.632	0.13146033
732.821	0.1309357
733.01	0.13035866
733.199	0.12980167
733.388	0.12919068
733.576	0.12857731
733.765	0.1280129
733.954	0.12732084
734.142	0.12660925
734.331	0.12588435
734.52	0.1251222
734.708	0.12434404
734.897	0.12359935
735.086	0.12282169
735.274	0.12209236
735.463	0.12146017
735.651	0.12092853
735.84	0.12043214
736.028	0.11990629
736.217	0.1193246
736.405	0.11876603
736.594	0.11824593
736.782	0.11758726
736.971	0.11688785
737.159	0.11616072
737.347	0.11546205
737.536	0.11475962
737.724	0.11407116
737.912	0.11336587
738.101	0.11275707
738.289	0.11215618
738.477	0.11158362
738.666	0.11096692
738.854	0.11042661
739.042	0.10983427
739.23	0.1092481
739.418	0.10869173
739.607	0.10807008
739.795	0.10740415
739.983	0.10680093
740.171	0.10612662
740.359	0.10555506
740.547	0.1050172
740.735	0.10444349
740.923	0.10399782
741.112	0.10351387
741.3	0.1030866
741.488	0.10266698
741.676	0.10215616
741.864	0.10162039
742.052	0.10105825
742.239	0.10034795
742.427	0.09978214
742.615	0.09914094
742.803	0.09856035
742.991	0.09803714
743.179	0.097543
743.367	0.09708009
743.555	0.09664201
743.742	0.09610487
743.93	0.09562623
744.118	0.09504573
744.306	0.09447413
744.494	0.0938975
744.681	0.09338831
744.869	0.09288043
745.057	0.09232891
745.244	0.09172758
745.432	0.09121641
745.62	0.09072198
745.807	0.09034536
745.995	0.08988524
746.182	0.08950937
746.37	0.08911299
746.558	0.0887675
746.745	0.08838321
746.933	0.08802562
747.12	0.08756253
747.308	0.08704387
747.495	0.0864841
747.683	0.08601497
747.87	0.08550416
748.057	0.08503883
748.245	0.08455241
748.432	0.08406685
748.62	0.08362155
748.807	0.0832243
748.994	0.08285044
749.182	0.08252299
749.369	0.08217592
749.556	0.08183572
749.743	0.08156225
749.931	0.08127377
750.118	0.08092955
750.305	0.08049959
750.492	0.08000357
750.68	0.07959584
750.867	0.07921528
751.054	0.07868203
751.241	0.07822163
751.428	0.07776113
751.615	0.0772806
751.802	0.07678554
751.989	0.07620671
752.176	0.0756336
752.363	0.07509806
752.55	0.07451679
752.737	0.07398652
752.924	0.0735821
753.111	0.07330871
753.298	0.07307557
753.485	0.07276787
753.672	0.0724601
753.859	0.07221755
754.046	0.0719742
754.233	0.07168097
754.42	0.07139001
754.606	0.0709635
754.793	0.07058578
754.98	0.07025111
755.167	0.06981352
755.353	0.06947297
755.54	0.0691379
755.727	0.06876985
755.914	0.0684745
756.1	0.06814236
756.287	0.06784305
756.474	0.06759905
756.66	0.06722785
756.847	0.0667902
757.033	0.0663213
757.22	0.06583369
757.407	0.06538081
757.593	0.06485166
757.78	0.06437177
757.966	0.06389524
758.153	0.06341611
758.339	0.06298253
758.526	0.06262177
758.712	0.06227609
758.898	0.06208172
759.085	0.06180188
759.271	0.0616288
759.458	0.06155884
759.644	0.06142001
759.83	0.06123262
760.017	0.06101065
760.203	0.0607805
760.389	0.06056775
760.576	0.06023038
760.762	0.05983953
760.948	0.05946147
761.134	0.05910216
761.32	0.05879014
761.507	0.05838552
761.693	0.05801285
761.879	0.05772947
762.065	0.05749825
762.251	0.05731136
762.437	0.05718194
762.623	0.05702002
762.809	0.05681684
762.995	0.05657776
763.181	0.05633789
763.367	0.05604755
763.553	0.05568825
763.739	0.05528201
763.925	0.05476955
764.111	0.05436937
764.297	0.0539557
764.483	0.05349245
764.669	0.05307879
764.855	0.05275906
765.041	0.05244779
765.227	0.05217127
765.412	0.05187915
765.598	0.05165886
765.784	0.05147544
765.97	0.05130074
766.156	0.05104211
766.341	0.05076007
766.527	0.05056635
766.713	0.05033378
766.898	0.05007794
767.084	0.04975094
767.27	0.04938876
767.455	0.0490077
767.641	0.0487033
767.827	0.04837993
768.012	0.04810416
768.198	0.04779687
768.383	0.04761566
768.569	0.04753251
768.754	0.04748647
768.94	0.04736416
769.125	0.04724931
769.311	0.04711275
769.496	0.04699352
769.682	0.04683303
769.867	0.04658171
770.052	0.04632519
770.238	0.04604059
770.423	0.04570445
770.608	0.04539056
770.794	0.04503265
770.979	0.04468424
771.164	0.04441584
771.35	0.04408435
771.535	0.04387578
771.72	0.04366979
771.905	0.04350578
772.09	0.04330945
772.276	0.04309969
772.461	0.04282409
772.646	0.04260779
772.831	0.04233578
773.016	0.04211995
773.201	0.04186385
773.386	0.0417123
773.571	0.04162151
773.756	0.0415072
773.941	0.04143731
774.126	0.04138057
774.311	0.04124405
774.496	0.04114222
774.681	0.04096842
774.866	0.04071247
775.051	0.04050292
775.236	0.04029394
775.421	0.040127
775.606	0.04002169
775.791	0.03983195
775.976	0.03967019
776.16	0.03952015
776.345	0.03936738
776.53	0.03923239
776.715	0.03909418
776.899	0.03889305
777.084	0.03871385
777.269	0.03860469
777.454	0.03849933
777.638	0.03846935
777.823	0.03834604
778.008	0.03827868
778.192	0.03830483
778.377	0.03832754
778.561	0.03826909
778.746	0.03818181
778.931	0.03795771
779.115	0.03775448
779.3	0.03742094
779.484	0.03710176
779.669	0.03680957
779.853	0.03652095
780.037	0.0362472
780.222	0.03599824
780.406	0.0358286
780.591	0.03570916
780.775	0.03553364
780.959	0.03534594
781.144	0.03512993
781.328	0.03494695
781.512	0.03478168
781.697	0.03460223
781.881	0.0344871
782.065	0.03434722
782.249	0.03411709
782.434	0.03398125
782.618	0.03387664
782.802	0.0338055
782.986	0.03366717
783.17	0.03350828
783.354	0.03338925
783.539	0.03342883
783.723	0.03342136
783.907	0.03331469
784.091	0.03316786
784.275	0.03300673
784.459	0.03279197
784.643	0.03259686
784.827	0.03234343
785.011	0.03203127
785.195	0.03172058
785.379	0.031387
785.563	0.03119046
785.747	0.03092496
785.93	0.03064173
786.114	0.03030362
786.298	0.02995908
786.482	0.02971584
786.666	0.02949464
786.85	0.0292281
787.033	0.02913398
787.217	0.02901824
787.401	0.02896627
787.585	0.02905362
787.768	0.02908693
787.952	0.02907927
788.136	0.0290525
788.319	0.02891429
788.503	0.02888025
788.687	0.02888129
788.87	0.02871719
789.054	0.02852764
789.237	0.02845155
789.421	0.02840749
789.605	0.02840426
789.788	0.02829393
789.972	0.02817706
790.155	0.02807775
790.338	0.0279766
790.522	0.02783871
790.705	0.02765105
790.889	0.02742116
791.072	0.02718898
791.256	0.02689415
791.439	0.02666449
791.622	0.02650355
791.806	0.02629322
791.989	0.0260763
792.172	0.02586693
792.355	0.02564017
792.539	0.02542026
792.722	0.02514258
792.905	0.02479451
793.088	0.02455618
793.271	0.0243613
793.455	0.02413968
793.638	0.02393385
793.821	0.02374161
794.004	0.02366339
794.187	0.02368069
794.37	0.02364707
794.553	0.02358959
794.736	0.02351787
794.919	0.02345456
795.102	0.02332346
795.285	0.02323018
795.468	0.02309849
795.651	0.02301436
795.834	0.02290967
796.017	0.02284874
796.2	0.02285921
796.383	0.02293609
796.566	0.02298098
796.749	0.02297665
796.931	0.02292422
797.114	0.0229105
797.297	0.02290452
797.48	0.0228968
797.663	0.02283252
797.845	0.02265097
798.028	0.02249797
798.211	0.02234449
798.393	0.02223564
798.576	0.0221012
798.759	0.02195726
798.941	0.02194403
799.124	0.02203691
799.307	0.02214558
799.489	0.02222589
799.672	0.02222689
799.854	0.02216101
800.037	0.02208426
800.219	0.02196443
800.402	0.02178898
800.584	0.02163393
800.767	0.0214832
800.949	0.02128182
801.132	0.02118349
801.314	0.02102557
801.496	0.02089594
801.679	0.02077824
801.861	0.0206227
802.043	0.02045515
802.226	0.02036007
802.408	0.02019359
802.59	0.02012244
802.772	0.01995026
802.955	0.01988921
803.137	0.01977387
803.319	0.01971025
803.501	0.0195505
803.684	0.01946862
803.866	0.01926117
804.048	0.01914388
804.23	0.01897381
804.412	0.01895022
804.594	0.01887438
804.776	0.01896533
804.958	0.01905229
805.14	0.0191805
805.322	0.01924749
805.504	0.0192376
805.686	0.01912036
805.868	0.01901738
806.05	0.01890707
806.232	0.01876704
806.414	0.01863184
806.596	0.01854172
806.778	0.01842957
806.96	0.01844537
807.141	0.01845861
807.323	0.01833453
807.505	0.01820655
807.687	0.01806247
807.869	0.01793313
808.05	0.01777727
808.232	0.01752238
808.414	0.01730296
808.595	0.01723207
808.777	0.01716806
808.959	0.01714441
809.14	0.01709046
809.322	0.01715519
809.504	0.01733155
809.685	0.01738555
809.867	0.0174751
810.048	0.01749214
810.23	0.0175455
810.411	0.01755029
810.593	0.01752468
810.774	0.01733292
810.956	0.01714396
811.137	0.01679236
811.319	0.01650881
811.5	0.01628737
811.681	0.01613922
811.863	0.01599148
812.044	0.01601582
812.225	0.0161098
812.407	0.01626605
812.588	0.01636114
812.769	0.01642009
812.951	0.01646883
813.132	0.01651591
813.313	0.01649362
813.494	0.0164939
813.675	0.01653242
813.857	0.01657953
814.038	0.01656817
814.219	0.01653058
814.4	0.01654591
814.581	0.01651893
814.762	0.01642445
814.943	0.01619469
815.124	0.01601691
815.305	0.01592719
815.486	0.01592471
815.667	0.01586746
815.848	0.01584689
816.029	0.01583395
816.21	0.01593494
816.391	0.01601647
816.572	0.01598681
816.753	0.01588332
816.934	0.01564814
817.115	0.0153072
817.295	0.01498146
817.476	0.01474715
817.657	0.01457146
817.838	0.01448789
818.019	0.01439799
818.199	0.014389
818.38	0.01447125
818.561	0.01459333
818.741	0.01453253
818.922	0.01454428
819.103	0.01447062
819.283	0.01447089
819.464	0.01452868
819.645	0.01458608
819.825	0.01461358
820.006	0.01469488
820.186	0.01462279
820.367	0.01457438
820.547	0.01432907
820.728	0.01413524
820.908	0.01389714
821.089	0.01374688
821.269	0.01366594
821.45	0.01370565
821.63	0.0137299
821.81	0.01392455
821.991	0.01406319
822.171	0.01418249
822.351	0.0141807
822.532	0.01419145
822.712	0.01426676
822.892	0.01431769
823.072	0.01423007
823.253	0.01404779
823.433	0.01396816
823.613	0.01397328
823.793	0.01396413
823.973	0.013799
824.154	0.01370073
824.334	0.01356613
824.514	0.013579
824.694	0.0135515
824.874	0.01356862
825.054	0.01346315
825.234	0.01343615
825.414	0.01337499
825.594	0.01346907
825.774	0.01341201
825.954	0.01341813
826.134	0.01334376
826.314	0.01339506
826.494	0.01334802
826.674	0.0131218
826.854	0.01289136
827.033	0.01281019
827.213	0.01257294
827.393	0.01246899
827.573	0.01230307
827.753	0.0123131
827.932	0.01253144
828.112	0.01269509
828.292	0.01275909
828.472	0.01280344
828.651	0.01263434
828.831	0.01243948
829.011	0.01215139
829.19	0.0118144
829.37	0.01161892
829.549	0.01154324
829.729	0.01159708
829.909	0.01177866
830.088	0.01198197
830.268	0.01224576
830.447	0.01242354
830.627	0.01246136
830.806	0.01243134
830.986	0.01238136
831.165	0.01227662
831.344	0.01225601
831.524	0.01209492
831.703	0.01210072
831.883	0.01213627
832.062	0.01217857
832.241	0.01211709
832.421	0.01195962
832.6	0.01170597
832.779	0.01159133
832.958	0.01144556
833.138	0.01128128
833.317	0.01105103
833.496	0.01094202
833.675	0.01089376
833.854	0.01087964
834.034	0.01071217
834.213	0.01064027
834.392	0.01055544
834.571	0.01051466
834.75	0.01044117
834.929	0.01046256
835.108	0.01038551
835.287	0.01044852
835.466	0.01037183
835.645	0.01037811
835.824	0.01045349
836.003	0.01050771
836.182	0.01043635
836.361	0.01038965
836.54	0.0102791
836.719	0.01025064
836.897	0.01014213
837.076	0.00994427
837.255	0.00975755
837.434	0.00972496
837.613	0.00971592
837.791	0.00973248
837.97	0.00964321
838.149	0.00953781
838.328	0.00947372
838.506	0.00944484
838.685	0.00934289
838.864	0.00927263
839.042	0.00916187
839.221	0.00909894
839.4	0.0091142
839.578	0.00910939
839.757	0.00907306
839.935	0.00916698
840.114	0.00924084
840.292	0.009354
840.471	0.00943614
840.649	0.00949693
840.828	0.0095418
841.006	0.00956879
841.185	0.00953899
841.363	0.00951536
841.541	0.00950236
841.72	0.00955321
841.898	0.00960133
842.076	0.00964037
842.255	0.00968124
842.433	0.00963947
842.611	0.0096452
842.789	0.00959907
842.968	0.00956983
843.146	0.00949915
843.324	0.00939386
843.502	0.00934775
843.68	0.00932663
843.859	0.0093256
844.037	0.00931976
844.215	0.00915028
844.393	0.00908214
844.571	0.0090888
844.749	0.00901778
844.927	0.00900643
845.105	0.00888296
845.283	0.0087712
845.461	0.00877631
845.639	0.00872632
845.817	0.00876008
845.995	0.00883964
846.173	0.00888855
846.351	0.00898135
846.529	0.00904051
846.706	0.00894055
846.884	0.00876608
847.062	0.00840326
847.24	0.00806384
847.418	0.00765779
847.595	0.00738585
847.773	0.00720206
847.951	0.00719933
848.129	0.00733888
848.306	0.0075897
848.484	0.00782896
848.662	0.00816245
848.839	0.00839994
849.017	0.00868861
849.194	0.00889638
849.372	0.00910927
849.549	0.00928904
849.727	0.00945686
849.905	0.00946719
850.082	0.00938947
850.26	0.0092123
850.437	0.0091302
850.614	0.00888862
850.792	0.00875698
850.969	0.00867132
851.147	0.00866041
851.324	0.00859441
851.501	0.00859471
851.679	0.0084287
851.856	0.00827413
852.033	0.00803069
852.211	0.00778427
852.388	0.00751903
852.565	0.00747411
852.742	0.00739971
852.92	0.00744384
853.097	0.00757645
853.274	0.0076778
853.451	0.00760947
853.628	0.00761875
853.805	0.00762297
853.982	0.00754188
854.159	0.00742966
854.336	0.00732809
854.514	0.0072126
854.691	0.00714935
854.868	0.00708454
855.045	0.00690472
855.221	0.0067751
855.398	0.00673067
855.575	0.0067119
855.752	0.00672496
855.929	0.00681342
856.106	0.00687081
856.283	0.00691386
856.46	0.00692463
856.637	0.00694732
856.813	0.00688106
856.99	0.00692517
857.167	0.00693626
857.344	0.00711233
857.52	0.00731655
857.697	0.00743676
857.874	0.00745181
858.05	0.00753825
858.227	0.00758783
858.404	0.0076121
858.58	0.00749571
858.757	0.00740822
858.933	0.00741831
859.11	0.00741757
859.287	0.00731497
859.463	0.00718429
859.64	0.00714111
859.816	0.00709991
859.993	0.00719694
860.169	0.00728648
860.345	0.00739775
860.522	0.00756909
860.698	0.00761734
860.875	0.00769193
861.051	0.00765392
861.227	0.00751358
861.404	0.00741736
861.58	0.00725796
861.756	0.0072445
861.932	0.00733132
862.109	0.00737601
862.285	0.00741124
862.461	0.0074283
862.637	0.00737518
862.813	0.00737167
862.99	0.00711398
863.166	0.00683419
863.342	0.00647573
863.518	0.00629394
863.694	0.00615748
863.87	0.00607202
864.046	0.00607073
864.222	0.00623234
864.398	0.00630949
864.574	0.00640332
864.75	0.00644876
864.926	0.00643513
865.102	0.00652178
865.278	0.00654029
865.454	0.0065588
865.63	0.00668407
865.805	0.00675105
865.981	0.00687271
866.157	0.00699273
866.333	0.00698382
866.509	0.00697698
866.684	0.00689556
866.86	0.00684487
867.036	0.00694656
867.212	0.00700685
867.387	0.00701354
867.563	0.00710928
867.739	0.0071667
867.914	0.007309
868.09	0.0073298
868.265	0.00729268
868.441	0.00719942
868.617	0.00704951
868.792	0.00682208
868.968	0.00674349
869.143	0.0067687
869.319	0.00679288
869.494	0.00691084
869.67	0.0069944
869.845	0.00716673
870.02	0.00739161
870.196	0.00758367
870.371	0.00747705
870.546	0.00739165
870.722	0.00725138
870.897	0.00709998
871.072	0.00695692
871.248	0.00670432
871.423	0.00646082
871.598	0.00640579
871.773	0.00642787
871.949	0.00631963
872.124	0.00637322
872.299	0.00635962
872.474	0.00644426
872.649	0.00647361
872.824	0.00644011
872.999	0.00638692
873.174	0.00642459
873.349	0.00648574
873.524	0.00645262
873.699	0.00629277
873.874	0.00624529
874.049	0.00614437
874.224	0.00606149
874.399	0.00598206
874.574	0.00571757
874.749	0.0055986
874.924	0.00563521
875.099	0.00559599
875.274	0.00554609
875.449	0.00547925
875.623	0.00529851
875.798	0.00512689
875.973	0.00486806
876.148	0.0046254
876.322	0.00430908
876.497	0.00413052
876.672	0.00390788
876.846	0.00389475
877.021	0.00403353
877.196	0.00434833
877.37	0.00460478
877.545	0.00483104
877.72	0.00500219
877.894	0.00519951
878.069	0.00525878
878.243	0.00527972
878.418	0.00522001
878.592	0.00516391
878.767	0.00521683
878.941	0.00524522
879.116	0.00521265
879.29	0.00532487
879.464	0.00538056
879.639	0.00544079
879.813	0.00548441
879.987	0.00552808
880.162	0.00550402
880.336	0.00545333
880.51	0.00533039
880.685	0.00511421
880.859	0.00489899
881.033	0.00476341
881.207	0.00455042
881.381	0.00446871
881.556	0.00444122
881.73	0.00438467
881.904	0.00445497
882.078	0.00447515
882.252	0.0044293
882.426	0.00455556
882.6	0.00474115
882.774	0.00490026
882.948	0.00517661
883.122	0.00525247
883.296	0.00536312
883.47	0.00552578
883.644	0.00550558
883.818	0.00541196
883.992	0.00536438
884.166	0.00522506
884.34	0.00527411
884.514	0.00536596
884.687	0.00544413
884.861	0.00546711
885.035	0.00546951
885.209	0.00557177
885.382	0.00555764
885.556	0.00552029
885.73	0.00551192
885.904	0.0054897
886.077	0.00550149
886.251	0.00550075
886.425	0.00548278
886.598	0.0056072
886.772	0.00569693
886.945	0.00563381
887.119	0.00555731
887.292	0.00555806
887.466	0.00552136
887.64	0.00537444
887.813	0.00521037
887.986	0.00509064
888.16	0.00517042
888.333	0.00528113
888.507	0.00540877
888.68	0.00553165
888.854	0.00567958
889.027	0.00575921
889.2	0.00574306
889.374	0.005644
889.547	0.00561475
889.72	0.00555344
889.893	0.00545093
890.067	0.00533403
890.24	0.00516044
890.413	0.00513349
890.586	0.00518336
890.759	0.00525011
890.933	0.0052676
891.106	0.00526774
891.279	0.00529401
891.452	0.00542208
891.625	0.00551223
891.798	0.00544044
891.971	0.00524067
892.144	0.00503775
892.317	0.00490633
892.49	0.00477245
892.663	0.00471309
892.836	0.00460201
893.009	0.00462188
893.182	0.00465198
893.355	0.00464887
893.527	0.00471893
893.7	0.00484592
893.873	0.00497624
894.046	0.00502663
894.219	0.00498218
894.391	0.00496954
894.564	0.00507162
894.737	0.00503776
894.91	0.00501353
895.082	0.00490882
895.255	0.00487544
895.428	0.00493579
895.6	0.00502396
895.773	0.0050241
895.945	0.00521139
896.118	0.00526235
896.291	0.00525099
896.463	0.00525705
896.636	0.00521342
896.808	0.00516554
896.981	0.00516826
897.153	0.0050428
897.326	0.00505377
897.498	0.00499865
897.67	0.00499389
897.843	0.00496324
898.015	0.00477644
898.187	0.00445971
898.36	0.00426221
898.532	0.00406171
898.704	0.00393234
898.877	0.00387993
899.049	0.00380743
899.221	0.00386991
899.393	0.00418584
899.566	0.00432087
899.738	0.00446276
899.91	0.00454691
900.082	0.00473846
900.254	0.00494365
900.426	0.0050627
900.598	0.00500734
900.77	0.00505088
900.942	0.00506254
901.114	0.00504915
901.286	0.00482572
901.458	0.00476339
901.63	0.00473075
901.802	0.00479795
901.974	0.0048169
902.146	0.00482725
902.318	0.00499912
902.49	0.00514656
902.662	0.00513374
902.834	0.00516712
903.005	0.0050153
903.177	0.00490799
903.349	0.00477606
903.521	0.00465499
903.693	0.00458551
903.864	0.00460561
904.036	0.00451693
904.208	0.00456162
904.379	0.00461961
904.551	0.00462164
904.723	0.00437896
904.894	0.00420129
905.066	0.00389943
905.237	0.0035907
905.409	0.00327542
905.58	0.00283733
905.752	0.00264101
905.923	0.00265821
906.095	0.0026592
906.266	0.00285031
906.438	0.00312133
906.609	0.00347208
906.78	0.00386024
906.952	0.00412835
907.123	0.00437033
907.295	0.00451646
907.466	0.00444981
907.637	0.00447566
907.808	0.00443883
907.98	0.0043909
908.151	0.00437558
908.322	0.00430698
908.493	0.00435255
908.665	0.00451638
908.836	0.00459983
909.007	0.00453455
909.178	0.00449268
909.349	0.00429641
909.52	0.00425596
909.691	0.00407127
909.862	0.00381203
910.033	0.00372491
910.204	0.0037674
910.375	0.00377988
910.546	0.00386373
910.717	0.00372974
910.888	0.00378923
911.059	0.00380607
911.23	0.00369766
911.401	0.00367576
911.572	0.00375244
911.742	0.00379226
911.913	0.00391425
912.084	0.0038803
912.255	0.00393223
912.426	0.00398521
912.596	0.00397811
912.767	0.00409025
912.938	0.00421168
913.108	0.0044135
913.279	0.00458007
913.45	0.00474807
913.62	0.00494668
913.791	0.00501996
913.962	0.0049693
914.132	0.00496305
914.303	0.00492231
914.473	0.00491259
914.644	0.00491427
914.814	0.0048003
914.985	0.00476781
915.155	0.00467351
915.326	0.00453771
915.496	0.00442297
915.666	0.00433516
915.837	0.0041725
916.007	0.00410288
916.177	0.003912
916.348	0.00392128
916.518	0.0038621
916.688	0.00375355
916.858	0.00374793
917.029	0.0037406
917.199	0.00367454
917.369	0.00377775
917.539	0.00372533
917.709	0.00380196
917.88	0.00383179
918.05	0.0036879
918.22	0.0036141
918.39	0.00360312
918.56	0.00352705
918.73	0.00358243
918.9	0.00368911
919.07	0.00386619
919.24	0.0041214
919.41	0.00438582
919.58	0.00464345
919.75	0.00489658
919.92	0.00504408
920.09	0.00511718
920.26	0.00525504
920.429	0.00540036
920.599	0.00551094
920.769	0.00563798
920.939	0.00569551
921.109	0.00573048
921.278	0.00573557
921.448	0.00564931
921.618	0.00545962
921.787	0.00516459
921.957	0.00471601
922.127	0.00447455
922.296	0.00428921
922.466	0.00414464
922.636	0.00388825
922.805	0.00365729
922.975	0.00346618
923.144	0.00332613
923.314	0.00315258
923.483	0.00282036
923.653	0.00247985
923.822	0.00232257
923.992	0.00228477
924.161	0.00244399
924.331	0.00263423
924.5	0.00271137
924.669	0.0029735
924.839	0.00313916
925.008	0.00343562
925.177	0.00348023
925.347	0.0034524
925.516	0.00345352
925.685	0.00348532
925.854	0.00354403
926.023	0.00370012
926.193	0.0037253
926.362	0.00387922
926.531	0.00408199
926.7	0.00418435
926.869	0.00436181
927.038	0.00426984
927.207	0.0043109
927.376	0.00439499
927.545	0.00437765
927.715	0.00438701
927.884	0.00437234
928.052	0.004415
928.221	0.00449371
928.39	0.00445968
928.559	0.00426672
928.728	0.00420002
928.897	0.00412613
929.066	0.00410346
929.235	0.00402864
929.404	0.00420828
929.572	0.00427265
929.741	0.00429722
929.91	0.00443412
930.079	0.00440058
930.247	0.00452019
930.416	0.00464942
930.585	0.00454027
930.753	0.0045932
930.922	0.0046667
931.091	0.00477949
931.259	0.00488904
931.428	0.00496633
931.596	0.00490156
931.765	0.00508592
931.934	0.00510733
932.102	0.00528748
932.27	0.00530218
932.439	0.00547258
932.607	0.00541967
932.776	0.00545065
932.944	0.00518661
933.113	0.00508883
933.281	0.00482974
933.449	0.00471103
933.618	0.00446507
933.786	0.00447676
933.954	0.00443698
934.123	0.00439469
934.291	0.00440272
934.459	0.00463346
934.627	0.00480996
934.795	0.00487605
934.964	0.00492093
935.132	0.00522874
935.3	0.00567991
935.468	0.00597869
935.636	0.00621272
935.804	0.00649484
935.972	0.00687185
936.14	0.00717136
936.308	0.00727779
936.476	0.00750904
936.644	0.00776215
936.812	0.00803756
936.98	0.0082522
937.148	0.00862056
937.316	0.00879907
937.484	0.00894683
937.652	0.00940617
937.82	0.00964106
937.987	0.00993534
938.155	0.01011786
938.323	0.01034973
938.491	0.01056581
938.658	0.01090678
938.826	0.01105942
938.994	0.01159253
939.162	0.01178279
939.329	0.01216827
939.497	0.01268133
939.665	0.01330477
939.832	0.01385906
940	0.01393483
940.167	0.01455171
940.335	0.0150103
940.502	0.01520317
940.67	0.01526218
940.837	0.01564104
941.005	0.01621074
941.172	0.01740395
941.34	0.01758947
941.507	0.01816999
941.674	0.01878702
941.842	0.01926177
942.009	0.02048872
942.177	0.0209993
942.344	0.02097599
942.511	0.02133812
942.678	0.02192092
942.846	0.02250834
943.013	0.02320552
943.18	0.02295754
943.347	0.0227979
943.514	0.02299127
943.682	0.02319702
943.849	0.02276855
944.016	0.02268366
944.183	0.02264901
944.35	0.02259003
944.517	0.02323385
944.684	0.02318028
944.851	0.0221171
945.018	0.02245402
945.185	0.02223
945.352	0.0219007
945.519	0.02199805
945.686	0.02120505
945.853	0.0210666
946.02	0.02158268
946.187	0.02086848
946.353	0.0210595
946.52	0.02062501
946.687	0.01959191
946.854	0.0194409
947.021	0.01887645
947.187	0.0190487
947.354	0.0186756
947.521	0.01851065
947.687	0.01835971
947.854	0.01825526
948.021	0.01721937
948.187	0.01722467
948.354	0.01661157
948.52	0.01648512
948.687	0.01638803
948.854	0.01604642
949.02	0.01611884
949.187	0.01686723
949.353	0.0166524
949.52	0.01575551
949.686	0.01540676
949.852	0.01502657
950.019	0.01488407
950.185	0.01429244
950.352	0.01344043
950.518	0.01299028
950.684	0.01319037
950.851	0.012951
951.017	0.01208604
951.183	0.01193508
951.349	0.0114969
951.516	0.01124477
951.682	0.01109102
951.848	0.01086871
952.014	0.01026944
952.18	0.00988538
952.346	0.0095931
952.512	0.00922274
952.679	0.00913247
952.845	0.00884142
953.011	0.00859659
953.177	0.00854693
953.343	0.00865483
953.509	0.00816861
953.675	0.00850347
953.841	0.0086797
954.007	0.00893343
954.172	0.00889267
954.338	0.0089737
954.504	0.00863093
954.67	0.00846105
954.836	0.0083182
955.002	0.00750215
955.167	0.00637216
955.333	0.00597996
955.499	0.00565316
955.665	0.00570111
955.83	0.00515613
955.996	0.00462199
956.162	0.00438908
956.327	0.00437933
956.493	0.00394038
956.659	0.00365741
956.824	0.00320063
956.99	0.00321011
957.155	0.00311431
957.321	0.00289044
957.486	0.00247662
957.652	0.00245086
957.817	0.00234703
957.983	0.0021912
958.148	0.00216866
958.314	0.0018186
958.479	0.00214636
958.644	0.00235521
958.81	0.00235297
958.975	0.00222306
959.14	0.00227924
959.306	0.00223835
959.471	0.00245786
959.636	0.00214992
959.801	0.00235351
959.967	0.00230458
960.132	0.00240931
960.297	0.00240992
960.462	0.00258445
960.627	0.00278239
960.792	0.00275807
960.957	0.00281013
961.123	0.00278064
961.288	0.00276762
961.453	0.00268627
961.618	0.00249564
961.783	0.00227918
961.948	0.00263555
962.113	0.00259432
962.277	0.00252624
962.442	0.00271742
962.607	0.00283179
962.772	0.00295963
962.937	0.00250775
963.102	0.0020219
963.267	0.00171215
963.431	0.00180173
963.596	0.00158971
963.761	0.00166275
963.926	0.00169845
964.09	0.00207155
964.255	0.00243984
964.42	0.00256347
964.584	0.00266471
964.749	0.00273577
964.914	0.00260528
965.078	0.00250968
965.243	0.00248192
965.407	0.00215491
965.572	0.00227327
965.736	0.00231638
965.901	0.00237009
966.065	0.00240826
966.23	0.00257652
966.394	0.00268983
966.559	0.00276805
966.723	0.00285526
966.887	0.00275128
967.052	0.00268462
967.216	0.00273704
967.38	0.00231759
967.545	0.00236781
967.709	0.00251762
967.873	0.00242676
968.037	0.00236005
968.202	0.00267257
968.366	0.0028218
968.53	0.00334868
968.694	0.00334787
968.858	0.00341429
969.022	0.00352124
969.187	0.00373415
969.351	0.00348594
969.515	0.00355548
969.679	0.00360451
969.843	0.00390402
970.007	0.0040287
970.171	0.00408025
970.335	0.00396827
970.499	0.00406448
970.662	0.00423886
970.826	0.00417157
970.99	0.00421026
971.154	0.00433261
971.318	0.00419653
971.482	0.00426852
971.645	0.00448117
971.809	0.00423098
971.973	0.00408922
972.137	0.00365226
972.3	0.00347401
972.464	0.0035838
972.628	0.00333796
972.791	0.00314271
972.955	0.00321936
973.119	0.00319775
973.282	0.00321933
973.446	0.00291852
973.609	0.00278372
973.773	0.00290688
973.936	0.00255777
974.1	0.00221601
974.263	0.00205934
974.427	0.00190757
974.59	0.0020095
974.754	0.00172947
974.917	0.00172447
975.08	0.00155649
975.244	0.00156214
975.407	0.001702
975.57	0.00183411
975.734	0.00169727
975.897	0.00184946
976.06	0.00157186
976.223	0.00184074
976.387	0.00181386
976.55	0.00170454
976.713	0.00160746
976.876	0.00182411
977.039	0.00181775
977.202	0.00195276
977.365	0.00220488
977.528	0.00229984
977.692	0.00222611
977.855	0.0021866
978.018	0.00203596
978.181	0.00206372
978.344	0.00206408
978.506	0.00204328
978.669	0.00227147
978.832	0.00248539
978.995	0.00258798
979.158	0.00266734
979.321	0.0027712
979.484	0.00280622
979.646	0.00281068
979.809	0.00266885
979.972	0.00265825
980.135	0.00269823
980.297	0.00287528
980.46	0.00293664
980.623	0.00326638
980.786	0.0032633
980.948	0.00360816
981.111	0.00394599
981.273	0.00425874
981.436	0.00432477
981.599	0.00455544
981.761	0.00464383
981.924	0.00467745
982.086	0.0042141
982.249	0.00413037
982.411	0.003804
982.573	0.00381128
982.736	0.00357783
982.898	0.00333058
983.061	0.00329269
983.223	0.00338368
983.385	0.00321739
983.548	0.0036285
983.71	0.00355342
983.872	0.00379168
984.034	0.00414029
984.197	0.00432558
984.359	0.00433898
984.521	0.00436835
984.683	0.00422268
984.845	0.00445109
985.008	0.0044185
985.17	0.00416113
985.332	0.00397916
985.494	0.00412769
985.656	0.00415821
985.818	0.00392819
985.98	0.00360995
986.142	0.00326949
986.304	0.00317315
986.466	0.00341757
986.628	0.00335354
986.79	0.00342319
986.952	0.00372671
987.113	0.00363569
987.275	0.00396468
987.437	0.00407576
987.599	0.0037706
987.761	0.00366829
987.922	0.00337814
988.084	0.00333869
988.246	0.00386939
988.408	0.00363201
988.569	0.00374348
988.731	0.00398292
988.893	0.00401335
989.054	0.00411994
989.216	0.00400227
989.377	0.00381806
989.539	0.00409461
989.701	0.00421885
989.862	0.00425878
990.024	0.00437779
990.185	0.0044572
990.347	0.00471425
990.508	0.00493702
990.669	0.00481685
990.831	0.00482524
990.992	0.0051063
991.154	0.00508653
991.315	0.00549184
991.476	0.00513243
991.638	0.00528395
991.799	0.00547794
991.96	0.00548042
992.121	0.00521985
992.283	0.00557284
992.444	0.00515144
992.605	0.0056113
992.766	0.00521425
992.927	0.00494516
993.088	0.00508641
993.249	0.005124
993.41	0.00490924
993.572	0.00501147
993.733	0.00481345
993.894	0.0050284
994.055	0.00478614
994.216	0.00427645
994.376	0.00412497
994.537	0.00397932
994.698	0.00398532
994.859	0.00376834
995.02	0.00365178
995.181	0.00387269
995.342	0.0044258
995.503	0.00416006
995.663	0.00386518
995.824	0.00366449
995.985	0.00389217
996.146	0.0036643
996.306	0.00387983
996.467	0.0034321
996.628	0.00355105
996.788	0.00411875
996.949	0.00443287
997.11	0.00445254
997.27	0.00412646
997.431	0.00375946
997.591	0.00405899
997.752	0.00439995
997.912	0.00433267
998.073	0.00429167
998.233	0.00404391
998.394	0.0045499
998.554	0.00521934
998.714	0.0049971
998.875	0.0045339
999.035	0.00442895
999.196	0.00435547
999.356	0.00470772
999.516	0.00427812
999.676	0.0039698
999.837	0.00378851
999.997	0.00402595
1000.157	0.00398647
1000.317	0.00339825
1000.477	0.00350131
1000.638	0.00358735
1000.798	0.00358796
1000.958	0.00423995
1001.118	0.00457159
1001.278	0.00462804
1001.438	0.00530521
1001.598	0.00548081
1001.758	0.00606216
1001.918	0.00637934
1002.078	0.00610048
1002.238	0.00627335
1002.398	0.00664163
1002.558	0.00697224
1002.718	0.00695746
1002.878	0.00702514
1003.037	0.00651781
1003.197	0.00643852
1003.357	0.00609987
1003.517	0.00614764
1003.677	0.00577699
1003.836	0.00542814
1003.996	0.00555143
1004.156	0.00558638
1004.315	0.00525476
1004.475	0.00511344
1004.635	0.00503134
1004.794	0.00484288
1004.954	0.00494622
1005.114	0.00445167
1005.273	0.00500891
1005.433	0.00552879
1005.592	0.00564244
1005.752	0.0054644
1005.911	0.00586454
1006.071	0.00573033
1006.23	0.00583716
1006.389	0.00583421
1006.549	0.00543657
1006.708	0.00564823
1006.868	0.00565944
1007.027	0.00591686
1007.186	0.00563437
1007.345	0.00611707
1007.505	0.0055043
1007.664	0.00614809
1007.823	0.006088
1007.982	0.00598388
1008.142	0.00552404
1008.301	0.00647021
1008.46	0.00622267
1008.619	0.00681231
1008.778	0.00713741
1008.937	0.00721278
1009.096	0.00727083
1009.255	0.00761689
1009.414	0.00775141
1009.573	0.00757917
1009.732	0.00747826
1009.891	0.00731709
1010.05	0.00756297
1010.209	0.00804315
1010.368	0.00819161
1010.527	0.00826352
1010.686	0.00837011
1010.845	0.00915964
1011.003	0.00918925
1011.162	0.00890061
1011.321	0.0095461
1011.48	0.009913
1011.638	0.01065408
1011.797	0.01176744
1011.956	0.01076475
1012.115	0.01091516
1012.273	0.01076655
1012.432	0.01027451
1012.59	0.01031111
1012.749	0.00959884
1012.908	0.00828942
1013.066	0.0088736
1013.225	0.00907294
1013.383	0.00945858
1013.542	0.00925995
1013.7	0.00880207
1013.859	0.00848229
1014.017	0.00983707
1014.175	0.00939976
1014.334	0.0090995
1014.492	0.00933269
1014.65	0.0091241
1014.809	0.00936444
1014.967	0.00925636
1015.125	0.00808268
1015.284	0.00834136
1015.442	0.0076854
1015.6	0.00773136
1015.758	0.00772122
1015.916	0.00784127
1016.075	0.00764973
1016.233	0.008037
1016.391	0.00802934
1016.549	0.00836068
1016.707	0.00893405
1016.865	0.00990599
1017.023	0.0109378
1017.181	0.01129648
1017.339	0.0115779
1017.497	0.01156608
1017.655	0.01238682
1017.813	0.01299006
1017.971	0.01258961
1018.129	0.01208051
1018.286	0.01199722
1018.444	0.011786
1018.602	0.01259937
1018.76	0.01222807
1018.918	0.01172336
1019.075	0.01099974
1019.233	0.01072496
1019.391	0.01122563
1019.549	0.01269081
1019.706	0.01271257
1019.864	0.0133431
1020.022	0.01406045
1020.179	0.01581979
1020.337	0.01717894
1020.494	0.01840185
1020.652	0.01763819
1020.809	0.01767498
1020.967	0.01734701
1021.124	0.01703344
1021.282	0.01603081
1021.439	0.01521071
1021.597	0.01441513
1021.754	0.01439115
1021.911	0.015068
1022.069	0.01576719
1022.226	0.01455469
1022.384	0.01592403
1022.541	0.01422843
1022.698	0.01547126
1022.855	0.01528039
1023.013	0.01440408
1023.17	0.01378351
1023.327	0.01673922
1023.484	0.01614168
1023.641	0.0182078
1023.798	0.01658366
1023.956	0.01831552
1024.113	0.01857733
1024.27	0.01886785
1024.427	0.01742827
1024.584	0.01856178
1024.741	0.01968967
1024.898	0.01993001
1025.055	0.01934813
1025.212	0.01934709
1025.369	0.02042453
1025.525	0.01931449
1025.682	0.01991573
1025.839	0.02051811
1025.996	0.0209719
1026.153	0.02133308
1026.31	0.02322641
1026.466	0.02277132
1026.623	0.02415146
1026.78	0.02370281
1026.937	0.02382544
1027.093	0.02508647
1027.25	0.02384758
1027.407	0.02400839
1027.563	0.02420297
1027.72	0.02415621
1027.876	0.02365403
1028.033	0.02228439
1028.19	0.02066342
1028.346	0.02009594
1028.503	0.01916931
1028.659	0.01887707
1028.816	0.01797556
1028.972	0.01894646
1029.128	0.01885443
1029.285	0.01773934
1029.441	0.0193111
1029.598	0.02067445
1029.754	0.02159739
1029.91	0.02337462
1030.067	0.02235221
1030.223	0.02412899
1030.379	0.02542768
1030.535	0.02685337
1030.691	0.02706128
1030.848	0.02679831
1031.004	0.02661796
1031.16	0.02921773
1031.316	0.02858477
1031.472	0.03075712
1031.628	0.02883306
1031.784	0.03112542
1031.94	0.0324412
1032.096	0.03283379
1032.252	0.0324224
1032.408	0.03177545
1032.564	0.03019252
1032.72	0.03439138
1032.876	0.03274837
1033.032	0.031942
1033.188	0.03348346
1033.344	0.03181331
1033.5	0.03175864
1033.655	0.03412432
1033.811	0.03194573
1033.967	0.03043532
