Data from 1_mm_pl_10pc_Absorbance__0__16-11-15-889.txt Node

Date: Wed Mar 08 16:11:15 CET 2023
User: Ange
Spectrometer: FLMT08341
Trigger mode: 0
Integration Time (sec): 1.000000E-2
Scans to average: 400
Electric dark correction enabled: true
Nonlinearity correction enabled: false
Boxcar width: 3
XAxis mode: Wavelengths
Number of Pixels in Spectrum: 3648
>>>>>Begin Spectral Data<<<<<
345.271	0.00260964
345.487	-0.01386695
345.704	-0.01888298
345.921	-0.01607448
346.137	-0.03679487
346.354	-0.04566474
346.571	-0.10231639
346.787	-0.27411675
347.004	0.19365321
347.22	0.05296895
347.437	0.22297032
347.653	0.09553467
347.87	-0.02542528
348.086	-0
348.303	-0.8512818
348.519	0.48186143
348.736	0.41476029
348.952	0.42544441
349.169	0.435403
349.385	0.45885273
349.601	0.44828937
349.818	0.44517372
350.034	0.44081799
350.251	0.44438196
350.467	0.44919757
350.683	0.43831876
350.9	0.43692506
351.116	0.43484827
351.332	0.43004044
351.549	0.44741502
351.765	0.45794778
351.981	0.46581312
352.197	0.48164321
352.414	0.50089275
352.63	0.51804191
352.846	0.53771228
353.062	0.5251838
353.278	0.51612183
353.495	0.53090432
353.711	0.5369123
353.927	0.54557129
354.143	0.54431267
354.359	0.53423252
354.575	0.52826934
354.792	0.54208981
355.008	0.53269595
355.224	0.52406245
355.44	0.51392767
355.656	0.51045517
355.872	0.52219757
356.088	0.56095116
356.304	0.56942665
356.52	0.57645483
356.736	0.58655036
356.952	0.59255482
357.168	0.59835446
357.384	0.60760189
357.6	0.58683826
357.816	0.5962126
358.032	0.60528226
358.248	0.62872217
358.464	0.63294631
358.679	0.64541819
358.895	0.64677025
359.111	0.6602763
359.327	0.64542107
359.543	0.64796569
359.759	0.65274541
359.974	0.65197108
360.19	0.64664493
360.406	0.64840463
360.622	0.64690301
360.838	0.6473549
361.053	0.65727781
361.269	0.65735589
361.485	0.66323034
361.701	0.67445625
361.916	0.66590451
362.132	0.66812724
362.348	0.67711165
362.563	0.67498484
362.779	0.66804061
362.995	0.67359817
363.21	0.6840678
363.426	0.68933506
363.641	0.69047739
363.857	0.69509826
364.073	0.69429993
364.288	0.69366405
364.504	0.71141495
364.719	0.71136543
364.935	0.71415039
365.15	0.72153168
365.366	0.72927557
365.581	0.74351514
365.797	0.74918264
366.012	0.73337132
366.228	0.72362566
366.443	0.74195596
366.658	0.74603268
366.874	0.73944594
367.089	0.7456978
367.305	0.74994831
367.52	0.76442937
367.735	0.7683949
367.951	0.75759645
368.166	0.7636578
368.381	0.78165447
368.597	0.77523907
368.812	0.7871334
369.027	0.78847404
369.243	0.79999945
369.458	0.82926391
369.673	0.83116724
369.888	0.82894469
370.104	0.8237226
370.319	0.82664848
370.534	0.82482299
370.749	0.82355067
370.964	0.81731036
371.179	0.81674782
371.395	0.81125863
371.61	0.82582573
371.825	0.81519786
372.04	0.82300153
372.255	0.81961686
372.47	0.81276833
372.685	0.8036981
372.9	0.80589153
373.115	0.79706333
373.33	0.80746085
373.545	0.80691579
373.76	0.81877932
373.975	0.81832542
374.19	0.82528571
374.405	0.83512324
374.62	0.8576476
374.835	0.87172676
375.05	0.8740504
375.265	0.87638209
375.48	0.88289392
375.695	0.90447459
375.91	0.89551065
376.125	0.87367113
376.339	0.85520436
376.554	0.86081121
376.769	0.86223218
376.984	0.86443322
377.199	0.86731042
377.414	0.86867497
377.628	0.88836824
377.843	0.90407033
378.058	0.9069571
378.273	0.92027013
378.487	0.92474097
378.702	0.92636036
378.917	0.93563762
379.131	0.92635944
379.346	0.91325771
379.561	0.90905089
379.775	0.90115268
379.99	0.89465883
380.205	0.88295283
380.419	0.87508398
380.634	0.86757807
380.848	0.88415157
381.063	0.88677964
381.278	0.89714647
381.492	0.89606635
381.707	0.9133464
381.921	0.91847261
382.136	0.94312258
382.35	0.93475107
382.565	0.93329682
382.779	0.93432853
382.994	0.94311937
383.208	0.93131944
383.422	0.94762189
383.637	0.94160624
383.851	0.95540981
384.066	0.96653465
384.28	0.97291632
384.494	0.97858661
384.709	0.98966829
384.923	0.98817396
385.137	0.98388904
385.352	0.98195904
385.566	0.99017249
385.78	0.98445985
385.995	0.98001163
386.209	0.97905007
386.423	0.98553622
386.637	0.99667734
386.852	0.99194264
387.066	0.98740959
387.28	0.98152629
387.494	0.99473818
387.708	0.99768763
387.923	0.99368235
388.137	0.99874252
388.351	1.00744196
388.565	1.01894903
388.779	1.03229092
388.993	1.04946605
389.207	1.05752287
389.421	1.06871927
389.635	1.06532127
389.85	1.06668655
390.064	1.06437416
390.278	1.06840377
390.492	1.06403199
390.706	1.06653284
390.92	1.06822046
391.134	1.08200765
391.348	1.10180826
391.561	1.10016792
391.775	1.09962593
391.989	1.08960668
392.203	1.09709476
392.417	1.10459791
392.631	1.11790408
392.845	1.10521667
393.059	1.12362172
393.273	1.12194945
393.486	1.11905194
393.7	1.10930771
393.914	1.11960579
394.128	1.10775162
394.342	1.1065483
394.555	1.08981092
394.769	1.09243568
394.983	1.10643934
395.197	1.11874003
395.41	1.11284233
395.624	1.12178163
395.838	1.12654184
396.051	1.15500578
396.265	1.15416282
396.479	1.15905896
396.692	1.16188267
396.906	1.15818724
397.12	1.1582331
397.333	1.17152456
397.547	1.16310687
397.76	1.17926733
397.974	1.18138878
398.187	1.18639781
398.401	1.20049032
398.614	1.20403463
398.828	1.2054119
399.041	1.20813402
399.255	1.20762689
399.468	1.21093158
399.682	1.21287793
399.895	1.21704411
400.109	1.21816552
400.322	1.2164663
400.536	1.20307174
400.749	1.21600378
400.962	1.22058458
401.176	1.21910946
401.389	1.21757802
401.602	1.20260911
401.816	1.21080501
402.029	1.23055226
402.242	1.22491694
402.456	1.22371272
402.669	1.21624169
402.882	1.20094709
403.095	1.22613778
403.309	1.22573327
403.522	1.22784466
403.735	1.22774433
403.948	1.22975378
404.161	1.26147283
404.375	1.27842439
404.588	1.27724283
404.801	1.27955283
405.014	1.27217785
405.227	1.2869966
405.44	1.29429942
405.653	1.29303659
405.866	1.28556625
406.079	1.28282194
406.293	1.28562735
406.506	1.29575828
406.719	1.29211869
406.932	1.29150964
407.145	1.27880188
407.358	1.30335389
407.571	1.29847488
407.784	1.30305987
407.996	1.30951026
408.209	1.30016316
408.422	1.29742642
408.635	1.3064831
408.848	1.30231136
409.061	1.29739885
409.274	1.2956407
409.487	1.29051292
409.7	1.29688094
409.912	1.30508274
410.125	1.30749195
410.338	1.30888202
410.551	1.31524159
410.764	1.31892079
410.976	1.3234191
411.189	1.32828922
411.402	1.32262293
411.615	1.32656705
411.827	1.32951802
412.04	1.33852848
412.253	1.33908941
412.465	1.33664844
412.678	1.33297737
412.891	1.34415836
413.103	1.32598287
413.316	1.32299613
413.529	1.33184802
413.741	1.34024233
413.954	1.34744686
414.166	1.35252265
414.379	1.34550779
414.591	1.36423774
414.804	1.36082913
415.016	1.35403336
415.229	1.34803792
415.441	1.3398647
415.654	1.34777455
415.866	1.35609064
416.079	1.36099757
416.291	1.3623366
416.504	1.37301092
416.716	1.37827353
416.928	1.38698645
417.141	1.38278694
417.353	1.38688713
417.566	1.37013328
417.778	1.37514751
417.99	1.35800483
418.203	1.34864511
418.415	1.347814
418.627	1.35075516
418.839	1.34798131
419.052	1.36838491
419.264	1.36918976
419.476	1.38118583
419.688	1.39267089
419.901	1.39432764
420.113	1.38948714
420.325	1.38546584
420.537	1.37017273
420.749	1.37683491
420.961	1.3791001
421.174	1.37574281
421.386	1.3712708
421.598	1.37151136
421.81	1.37127013
422.022	1.37354918
422.234	1.3710408
422.446	1.36587956
422.658	1.36484177
422.87	1.36758949
423.082	1.36729255
423.294	1.36700248
423.506	1.37089318
423.718	1.36840741
423.93	1.36312842
424.142	1.35721477
424.354	1.35145234
424.566	1.34943221
424.778	1.35155738
424.99	1.3475788
425.202	1.34106126
425.414	1.34420895
425.625	1.35277945
425.837	1.34965224
426.049	1.35369879
426.261	1.34647684
426.473	1.3397528
426.684	1.33970378
426.896	1.34143112
427.108	1.33351712
427.32	1.33884348
427.531	1.33346439
427.743	1.33472688
427.955	1.34556242
428.167	1.34252277
428.378	1.33860724
428.59	1.33871602
428.802	1.33624393
429.013	1.33248236
429.225	1.32840808
429.436	1.32060751
429.648	1.32360247
429.86	1.32466934
430.071	1.32626982
430.283	1.32532873
430.494	1.32290016
430.706	1.32442131
430.917	1.32051761
431.129	1.31723801
431.34	1.31118247
431.552	1.30853205
431.763	1.30332467
431.975	1.30585503
432.186	1.29606558
432.398	1.29214882
432.609	1.2805112
432.821	1.27832876
433.032	1.27251095
433.243	1.26707694
433.455	1.26217283
433.666	1.26296861
433.877	1.26649999
434.089	1.26362313
434.3	1.2569691
434.511	1.24792888
434.723	1.24465811
434.934	1.23485932
435.145	1.22436525
435.356	1.21326861
435.568	1.21124616
435.779	1.20590689
435.99	1.19914783
436.201	1.19329784
436.412	1.19099676
436.624	1.19363758
436.835	1.19393736
437.046	1.19521419
437.257	1.19283999
437.468	1.19903504
437.679	1.19993314
437.89	1.19738398
438.101	1.19490044
438.312	1.19067251
438.523	1.18412307
438.734	1.18134691
438.945	1.17540282
439.156	1.16700882
439.367	1.16422432
439.578	1.16090358
439.789	1.15277979
440	1.14928691
440.211	1.14289059
440.422	1.13782412
440.633	1.13735109
440.844	1.12923595
441.055	1.12241993
441.266	1.12171726
441.477	1.11370291
441.687	1.11061597
441.898	1.10601477
442.109	1.09777415
442.32	1.09374316
442.531	1.08481443
442.741	1.07367741
442.952	1.0691646
443.163	1.06400706
443.374	1.05617846
443.584	1.0504935
443.795	1.04636039
444.006	1.043137
444.216	1.03945959
444.427	1.03213864
444.638	1.02460537
444.848	1.0189572
445.059	1.01354806
445.27	1.00617733
445.48	0.99947142
445.691	0.99441583
445.901	0.99076564
446.112	0.98561223
446.323	0.9791179
446.533	0.97272699
446.744	0.9659434
446.954	0.95948325
447.165	0.95332243
447.375	0.948837
447.586	0.94433251
447.796	0.94010953
448.006	0.93440849
448.217	0.93148413
448.427	0.92641823
448.638	0.91988955
448.848	0.91120808
449.058	0.90421991
449.269	0.89784422
449.479	0.8923316
449.689	0.88515966
449.9	0.87971425
450.11	0.8747421
450.32	0.87128663
450.531	0.86452311
450.741	0.85813193
450.951	0.85268947
451.161	0.8463754
451.372	0.84058629
451.582	0.83749473
451.792	0.83047177
452.002	0.82531499
452.212	0.81897386
452.422	0.81353376
452.633	0.80757215
452.843	0.80293717
453.053	0.7936041
453.263	0.78879152
453.473	0.78320774
453.683	0.77903271
453.893	0.77217391
454.103	0.76807539
454.313	0.76159512
454.523	0.756809
454.733	0.75105709
454.943	0.74646505
455.153	0.74156187
455.363	0.73640428
455.573	0.73101754
455.783	0.72640867
455.993	0.72108171
456.203	0.71678594
456.413	0.71131003
456.623	0.70534062
456.833	0.70155107
457.042	0.69614144
457.252	0.69094415
457.462	0.6857497
457.672	0.68030373
457.882	0.67538768
458.091	0.670481
458.301	0.66446431
458.511	0.65933759
458.721	0.65415631
458.931	0.64948233
459.14	0.64478403
459.35	0.64054516
459.56	0.63629743
459.769	0.63260224
459.979	0.62764494
460.189	0.62319136
460.398	0.61838469
460.608	0.61398352
460.817	0.60917453
461.027	0.60435713
461.237	0.59935911
461.446	0.59522401
461.656	0.59147088
461.865	0.58719812
462.075	0.58291806
462.284	0.57900576
462.494	0.57468308
462.703	0.57019231
462.913	0.56616592
463.122	0.56166155
463.332	0.5576443
463.541	0.55395603
463.751	0.54957735
463.96	0.54583685
464.169	0.54236986
464.379	0.53895099
464.588	0.53523122
464.797	0.53151206
465.007	0.52748721
465.216	0.52391435
465.425	0.52037655
465.635	0.51674139
465.844	0.51304323
466.053	0.50934598
466.263	0.50586957
466.472	0.50228712
466.681	0.49883494
466.89	0.49521818
467.099	0.4917523
467.309	0.48827124
467.518	0.48528537
467.727	0.48210686
467.936	0.47876841
468.145	0.47573342
468.354	0.47300005
468.563	0.46987162
468.772	0.46683993
468.982	0.46381165
469.191	0.46111848
469.4	0.45834659
469.609	0.45534654
469.818	0.4526832
470.027	0.4498513
470.236	0.44694074
470.445	0.4440594
470.654	0.4409127
470.863	0.43780945
471.072	0.43518222
471.28	0.43192466
471.489	0.42936765
471.698	0.42673195
471.907	0.42412673
472.116	0.42190318
472.325	0.41955229
472.534	0.41711753
472.743	0.41468145
472.951	0.41253888
473.16	0.41049419
473.369	0.40825007
473.578	0.40590498
473.786	0.40388705
473.995	0.40162808
474.204	0.39985532
474.413	0.39754539
474.621	0.39532805
474.83	0.3935168
475.039	0.39146915
475.247	0.38955574
475.456	0.3877788
475.665	0.38589226
475.873	0.38408256
476.082	0.38199933
476.291	0.38010552
476.499	0.37855833
476.708	0.37658459
476.916	0.37492521
477.125	0.37312259
477.333	0.37150332
477.542	0.37019514
477.75	0.36870243
477.959	0.36724019
478.167	0.36596859
478.376	0.36436134
478.584	0.36304881
478.793	0.36166728
479.001	0.36021529
479.209	0.35878284
479.418	0.35746409
479.626	0.35619089
479.834	0.35511009
480.043	0.35386772
480.251	0.35252421
480.459	0.35135432
480.668	0.35028082
480.876	0.34904418
481.084	0.34793798
481.293	0.34676619
481.501	0.34570429
481.709	0.34493141
481.917	0.34398019
482.125	0.34308597
482.334	0.3422675
482.542	0.34124791
482.75	0.34035787
482.958	0.33953328
483.166	0.33850697
483.374	0.33763023
483.583	0.33684032
483.791	0.33606479
483.999	0.33539239
484.207	0.33469274
484.415	0.33393637
484.623	0.33334962
484.831	0.33276254
485.039	0.33219094
485.247	0.33167077
485.455	0.33118164
485.663	0.33061869
485.871	0.3301399
486.079	0.32956904
486.287	0.32918988
486.495	0.32863442
486.702	0.3281003
486.91	0.32764834
487.118	0.32735661
487.326	0.32699989
487.534	0.32665232
487.742	0.32622506
487.95	0.32604816
488.157	0.32586971
488.365	0.32568841
488.573	0.32540402
488.781	0.32525144
488.988	0.32530312
489.196	0.32523314
489.404	0.32514091
489.612	0.32499337
489.819	0.32499918
490.027	0.32510763
490.235	0.32510152
490.442	0.32510031
490.65	0.3251893
490.857	0.32525628
491.065	0.32540496
491.273	0.32543576
491.48	0.32550042
491.688	0.32557024
491.895	0.32567965
492.103	0.325708
492.31	0.32579488
492.518	0.32595205
492.725	0.32628705
492.933	0.32645062
493.14	0.32678411
493.348	0.32699527
493.555	0.32736628
493.763	0.32773598
493.97	0.32800067
494.177	0.32819832
494.385	0.32856648
494.592	0.32895718
494.8	0.3293546
495.007	0.32980096
495.214	0.33033467
495.422	0.33083862
495.629	0.3313441
495.836	0.33191719
496.043	0.33244269
496.251	0.33303627
496.458	0.33359205
496.665	0.3341397
496.872	0.33465252
497.08	0.33524845
497.287	0.33572137
497.494	0.33635768
497.701	0.3370154
497.908	0.33776245
498.115	0.33833285
498.322	0.33904039
498.53	0.33975001
498.737	0.34045805
498.944	0.34107364
499.151	0.34164378
499.358	0.34221832
499.565	0.34300753
499.772	0.34380353
499.979	0.34457
500.186	0.34544742
500.393	0.34635854
500.6	0.34729656
500.807	0.34810539
501.014	0.3488877
501.221	0.34973316
501.427	0.35052752
501.634	0.35142588
501.841	0.35225531
502.048	0.35312188
502.255	0.35405812
502.462	0.35513508
502.669	0.35624073
502.875	0.35734171
503.082	0.35835958
503.289	0.35937798
503.496	0.36040956
503.702	0.36142961
503.909	0.36240325
504.116	0.36336566
504.323	0.36440823
504.529	0.36546453
504.736	0.3665586
504.943	0.36761294
505.149	0.3688197
505.356	0.37005161
505.563	0.37124176
505.769	0.3723645
505.976	0.37351187
506.182	0.37472351
506.389	0.37603668
506.595	0.37729704
506.802	0.37843517
507.008	0.37960347
507.215	0.38091109
507.421	0.38220014
507.628	0.38345401
507.834	0.38466296
508.041	0.38596359
508.247	0.38728038
508.454	0.38867947
508.66	0.38985293
508.866	0.39129477
509.073	0.39278506
509.279	0.39423326
509.486	0.39556138
509.692	0.39688521
509.898	0.39823471
510.105	0.39977605
510.311	0.40106474
510.517	0.40239718
510.723	0.40377668
510.93	0.40513789
511.136	0.40664054
511.342	0.40813907
511.548	0.40961636
511.754	0.41121251
511.961	0.41288708
512.167	0.41455156
512.373	0.41616102
512.579	0.41774306
512.785	0.41932373
512.991	0.42087682
513.197	0.42236935
513.404	0.42377485
513.61	0.42533544
513.816	0.42682385
514.022	0.42831606
514.228	0.42987275
514.434	0.43144497
514.64	0.43306046
514.846	0.43474413
515.052	0.43637255
515.258	0.43805727
515.464	0.43984775
515.669	0.44162122
515.875	0.44341569
516.081	0.44516453
516.287	0.44694294
516.493	0.44865121
516.699	0.45035113
516.905	0.45206664
517.111	0.45362751
517.316	0.45529476
517.522	0.4570663
517.728	0.45885467
517.934	0.4606386
518.139	0.46246985
518.345	0.46416116
518.551	0.46608208
518.757	0.46787769
518.962	0.46959174
519.168	0.47141062
519.374	0.47313508
519.579	0.47499897
519.785	0.47702953
519.991	0.47891481
520.196	0.4807891
520.402	0.48270623
520.607	0.48454334
520.813	0.48660068
521.018	0.48846881
521.224	0.49018723
521.429	0.4921142
521.635	0.49409718
521.84	0.49593372
522.046	0.49791765
522.251	0.49988999
522.457	0.50197134
522.662	0.5041484
522.868	0.50615334
523.073	0.50811033
523.279	0.51018836
523.484	0.51206331
523.689	0.51404318
523.895	0.51618259
524.1	0.518176
524.305	0.52022082
524.511	0.52231549
524.716	0.52441517
524.921	0.52659763
525.126	0.52868235
525.332	0.53067883
525.537	0.53274273
525.742	0.53501614
525.947	0.5372318
526.153	0.53932287
526.358	0.54148224
526.563	0.54360809
526.768	0.54573047
526.973	0.54794652
527.178	0.55003596
527.383	0.55213147
527.588	0.55437069
527.794	0.55640905
527.999	0.5586335
528.204	0.56079031
528.409	0.56275681
528.614	0.56497794
528.819	0.56726355
529.024	0.56942882
529.229	0.57166902
529.434	0.57397694
529.639	0.57617973
529.843	0.57864053
530.048	0.5807977
530.253	0.5829973
530.458	0.58523307
530.663	0.58752742
530.868	0.5897473
531.073	0.59193955
531.278	0.5940583
531.482	0.59624079
531.687	0.59851392
531.892	0.60074631
532.097	0.60287118
532.302	0.60519658
532.506	0.6075462
532.711	0.60984556
532.916	0.61221161
533.12	0.61442086
533.325	0.61675063
533.53	0.61933545
533.734	0.62161544
533.939	0.62399524
534.144	0.62649005
534.348	0.62885273
534.553	0.63125243
534.757	0.63364402
534.962	0.63586639
535.167	0.63828717
535.371	0.64066888
535.576	0.64319308
535.78	0.64568837
535.985	0.64824431
536.189	0.65070617
536.394	0.65314338
536.598	0.65548804
536.803	0.65789744
537.007	0.6602069
537.211	0.6627703
537.416	0.66510587
537.62	0.66755307
537.825	0.66999583
538.029	0.67273978
538.233	0.67515335
538.438	0.67764969
538.642	0.67987054
538.846	0.68251492
539.05	0.6850488
539.255	0.68753418
539.459	0.68992792
539.663	0.69256226
539.867	0.6951221
540.072	0.69784758
540.276	0.70022939
540.48	0.70282461
540.684	0.70544983
540.888	0.70811538
541.092	0.71058346
541.297	0.71299117
541.501	0.71540383
541.705	0.7180523
541.909	0.72047098
542.113	0.72289755
542.317	0.72531901
542.521	0.72785577
542.725	0.73059039
542.929	0.73322426
543.133	0.73584046
543.337	0.73863029
543.541	0.74129288
543.745	0.743823
543.949	0.74653883
544.153	0.74909187
544.357	0.75148891
544.56	0.75408351
544.764	0.75667039
544.968	0.75919022
545.172	0.76161919
545.376	0.76427778
545.58	0.76693162
545.783	0.76989027
545.987	0.77236155
546.191	0.77478376
546.395	0.77755033
546.598	0.78041353
546.802	0.78301833
547.006	0.78556852
547.21	0.7876231
547.413	0.79031598
547.617	0.79308531
547.821	0.79563922
548.024	0.79828244
548.228	0.80069059
548.431	0.80335725
548.635	0.80626609
548.839	0.80884872
549.042	0.81141625
549.246	0.81390248
549.449	0.81637573
549.653	0.81913652
549.856	0.82159707
550.06	0.8240753
550.263	0.82672211
550.467	0.82929847
550.67	0.83193468
550.874	0.8344032
551.077	0.83711968
551.28	0.8399581
551.484	0.8427776
551.687	0.84537086
551.891	0.84817011
552.094	0.85079425
552.297	0.85373592
552.501	0.85646815
552.704	0.85905168
552.907	0.86142705
553.11	0.86380114
553.314	0.86615602
553.517	0.86839065
553.72	0.87074724
553.923	0.87294523
554.127	0.87555864
554.33	0.87797575
554.533	0.88082783
554.736	0.88330021
554.939	0.88618089
555.142	0.88901563
555.345	0.8919161
555.549	0.8946466
555.752	0.89750572
555.955	0.90014864
556.158	0.90308007
556.361	0.90580783
556.564	0.90828953
556.767	0.9107719
556.97	0.91328687
557.173	0.91594174
557.376	0.9187184
557.579	0.9210096
557.782	0.92362592
557.984	0.92646331
558.187	0.92920462
558.39	0.93184144
558.593	0.93455459
558.796	0.93687065
558.999	0.93939985
559.202	0.94165829
559.404	0.94380216
559.607	0.94614643
559.81	0.94836605
560.013	0.95074341
560.216	0.95316223
560.418	0.95598071
560.621	0.95864507
560.824	0.96157216
561.026	0.96416521
561.229	0.96673718
561.432	0.96920857
561.634	0.97188958
561.837	0.97412232
562.04	0.97680813
562.242	0.97907738
562.445	0.98163837
562.647	0.98438628
562.85	0.98674634
563.053	0.98901195
563.255	0.99174005
563.458	0.99424278
563.66	0.99696652
563.863	0.9997014
564.065	1.00237564
564.268	1.00509084
564.47	1.00769507
564.672	1.00995562
564.875	1.01262929
565.077	1.01501526
565.28	1.01720532
565.482	1.01973457
565.684	1.02203945
565.887	1.02476329
566.089	1.02765988
566.291	1.02992957
566.494	1.03227127
566.696	1.03463449
566.898	1.03715708
567.1	1.03989068
567.303	1.04228543
567.505	1.04467771
567.707	1.04676858
567.909	1.04914889
568.111	1.05164971
568.314	1.05399993
568.516	1.0562001
568.718	1.05844574
568.92	1.06074227
569.122	1.06339273
569.324	1.06581666
569.526	1.06799149
569.728	1.07027463
569.93	1.07245257
570.132	1.07474878
570.334	1.07696233
570.536	1.07894668
570.738	1.08109104
570.94	1.08340253
571.142	1.08576804
571.344	1.08792094
571.546	1.09024121
571.748	1.09287413
571.95	1.09527016
572.152	1.09764112
572.354	1.10001764
572.555	1.10233394
572.757	1.10525286
572.959	1.10751553
573.161	1.10906524
573.363	1.11153251
573.564	1.11428213
573.766	1.11645763
573.968	1.1185697
574.17	1.12023904
574.371	1.12262334
574.573	1.12505026
574.775	1.12691756
574.976	1.12862386
575.178	1.13058893
575.38	1.13243698
575.581	1.13442166
575.783	1.1364162
575.985	1.13858142
576.186	1.1411477
576.388	1.14324756
576.589	1.14519459
576.791	1.14737608
576.992	1.14962116
577.194	1.15154044
577.395	1.153354
577.597	1.15505182
577.798	1.15705171
578	1.15911317
578.201	1.16091392
578.402	1.16287132
578.604	1.16483427
578.805	1.16710804
579.007	1.1690873
579.208	1.17105425
579.409	1.17333997
579.611	1.17515782
579.812	1.17731777
580.013	1.1789641
580.215	1.18007116
580.416	1.18154774
580.617	1.18317697
580.818	1.18495374
581.019	1.18683495
581.221	1.18838836
581.422	1.1901929
581.623	1.19260218
581.824	1.19426303
582.025	1.19599958
582.226	1.19773469
582.428	1.19971472
582.629	1.20177399
582.83	1.20329661
583.031	1.20487489
583.232	1.20748704
583.433	1.20966135
583.634	1.21111811
583.835	1.21271716
584.036	1.2140059
584.237	1.2159125
584.438	1.21761317
584.639	1.21831002
584.84	1.21979249
585.041	1.22127521
585.242	1.22277651
585.442	1.22427399
585.643	1.22632194
585.844	1.22761532
586.045	1.22977694
586.246	1.23080822
586.447	1.2322134
586.647	1.23334743
586.848	1.23474064
587.049	1.23565366
587.25	1.23709277
587.45	1.23816237
587.651	1.2397609
587.852	1.24140054
588.053	1.24322808
588.253	1.24435354
588.454	1.24593742
588.655	1.24707666
588.855	1.24811779
589.056	1.24928487
589.256	1.25048052
589.457	1.25123594
589.658	1.25291315
589.858	1.25354281
590.059	1.25479942
590.259	1.25620071
590.46	1.25700119
590.66	1.25797932
590.861	1.25914993
591.061	1.26025114
591.262	1.26191625
591.462	1.26334215
591.662	1.26457243
591.863	1.2659167
592.063	1.2673903
592.264	1.26860853
592.464	1.26959554
592.664	1.27067148
592.865	1.27164186
593.065	1.27217264
593.265	1.27365773
593.465	1.27420054
593.666	1.27550864
593.866	1.2767177
594.066	1.27764252
594.266	1.27862989
594.467	1.27922846
594.667	1.27973221
594.867	1.28059926
595.067	1.28100591
595.267	1.28138233
595.467	1.28207557
595.668	1.28271033
595.868	1.28400946
596.068	1.2852402
596.268	1.28629351
596.468	1.28726657
596.668	1.28859296
596.868	1.28875145
597.068	1.28988639
597.268	1.29081318
597.468	1.29139563
597.668	1.29210007
597.868	1.29277322
598.068	1.2930497
598.268	1.29437076
598.467	1.29465995
598.667	1.29537631
598.867	1.29549836
599.067	1.29631034
599.267	1.29701756
599.467	1.2976505
599.667	1.29762623
599.866	1.29854254
600.066	1.2990433
600.266	1.29949125
600.466	1.29974081
600.665	1.29981538
600.865	1.29998141
601.065	1.3013371
601.264	1.30152798
601.464	1.30201867
601.664	1.30321246
601.863	1.30391518
602.063	1.30494221
602.263	1.3048607
602.462	1.30504107
602.662	1.30571316
602.861	1.30564362
603.061	1.3058453
603.26	1.3059954
603.46	1.30565329
603.659	1.30657539
603.859	1.3069169
604.058	1.30676555
604.258	1.30726467
604.457	1.30799128
604.657	1.30802273
604.856	1.30826854
605.056	1.30850051
605.255	1.30850218
605.454	1.30868795
605.654	1.30876094
605.853	1.30839691
606.052	1.30802445
606.252	1.3081752
606.451	1.30827834
606.65	1.30871651
606.849	1.30829877
607.049	1.30810193
607.248	1.30757826
607.447	1.30803215
607.646	1.30833925
607.845	1.30796755
608.045	1.3072944
608.244	1.30775591
608.443	1.30791991
608.642	1.30797261
608.841	1.30775696
609.04	1.30727861
609.239	1.30780531
609.438	1.30785786
609.637	1.30739986
609.836	1.30744365
610.035	1.30744831
610.234	1.30758103
610.433	1.30762453
610.632	1.30726479
610.831	1.30679951
611.03	1.30685425
611.229	1.30656563
611.428	1.30649118
611.627	1.3062349
611.826	1.30576045
612.025	1.30540129
612.224	1.30521381
612.422	1.30442829
612.621	1.30356577
612.82	1.30281672
613.019	1.30184236
613.218	1.30147428
613.416	1.3005525
613.615	1.2999139
613.814	1.29936707
614.012	1.2990557
614.211	1.29847846
614.41	1.29803177
614.608	1.2975054
614.807	1.29725795
615.006	1.29681021
615.204	1.29597081
615.403	1.29566419
615.602	1.2952422
615.8	1.29442298
615.999	1.29328881
616.197	1.29230788
616.396	1.29154281
616.594	1.29110803
616.793	1.29023413
616.991	1.28923974
617.19	1.28861505
617.388	1.28841243
617.586	1.2877912
617.785	1.28706837
617.983	1.28658468
618.182	1.28553373
618.38	1.28460577
618.578	1.28377592
618.777	1.28296355
618.975	1.28239655
619.173	1.28144408
619.372	1.28078058
619.57	1.28010532
619.768	1.27966791
619.966	1.27887368
620.165	1.27719468
620.363	1.2760849
620.561	1.27505931
620.759	1.27366112
620.957	1.27287077
621.155	1.27139898
621.354	1.27056767
621.552	1.27048464
621.75	1.26922093
621.948	1.26853869
622.146	1.26760524
622.344	1.26597567
622.542	1.26530207
622.74	1.26355643
622.938	1.26220407
623.136	1.26157083
623.334	1.26049895
623.532	1.25934059
623.73	1.25886633
623.928	1.25771677
624.126	1.25732907
624.324	1.2564672
624.522	1.25486336
624.719	1.25319397
624.917	1.25201395
625.115	1.25018592
625.313	1.24905179
625.511	1.24752255
625.708	1.24553511
625.906	1.24431881
626.104	1.24310688
626.302	1.24162011
626.499	1.24033606
626.697	1.23889583
626.895	1.23771408
627.093	1.23699558
627.29	1.23588573
627.488	1.23451462
627.686	1.23357855
627.883	1.23268769
628.081	1.23089098
628.278	1.22949979
628.476	1.22785973
628.673	1.22619355
628.871	1.22486207
629.068	1.22329839
629.266	1.22160908
629.463	1.220648
629.661	1.21896805
629.858	1.21760498
630.056	1.21623059
630.253	1.21510834
630.451	1.21351765
630.648	1.21189368
630.845	1.2102231
631.043	1.20860335
631.24	1.20722361
631.438	1.20547198
631.635	1.20346597
631.832	1.20174022
632.029	1.20051682
632.227	1.19868852
632.424	1.19733814
632.621	1.19533608
632.818	1.19404899
633.016	1.19255249
633.213	1.19098626
633.41	1.18886916
633.607	1.18722496
633.804	1.18531408
634.001	1.18357507
634.199	1.18139313
634.396	1.17975363
634.593	1.17792642
634.79	1.17647406
634.987	1.17457907
635.184	1.17287011
635.381	1.17111689
635.578	1.16954676
635.775	1.16764978
635.972	1.16614789
636.169	1.16432716
636.366	1.16300596
636.563	1.16121278
636.76	1.15933428
636.957	1.15764035
637.153	1.1553709
637.35	1.15348911
637.547	1.15135863
637.744	1.14883836
637.941	1.14714372
638.138	1.14483898
638.334	1.14287933
638.531	1.14145712
638.728	1.13933861
638.925	1.13762896
639.121	1.13627369
639.318	1.13387604
639.515	1.1322019
639.711	1.1303544
639.908	1.12779904
640.105	1.12570502
640.301	1.12364342
640.498	1.12129793
640.695	1.11976777
640.891	1.11785929
641.088	1.11567751
641.284	1.11402965
641.481	1.11227315
641.677	1.1103075
641.874	1.108231
642.07	1.10597386
642.267	1.1044953
642.463	1.10232411
642.66	1.10052425
642.856	1.09827282
643.053	1.09592868
643.249	1.09380369
643.445	1.09171478
643.642	1.08894924
643.838	1.08711529
644.034	1.08472321
644.231	1.08268588
644.427	1.08049882
644.623	1.07841962
644.82	1.07624476
645.016	1.07418798
645.212	1.07176982
645.408	1.06958524
645.604	1.06757773
645.801	1.06570093
645.997	1.06350686
646.193	1.06123452
646.389	1.05904009
646.585	1.05695202
646.781	1.05499427
646.977	1.05291974
647.173	1.05068366
647.37	1.0486242
647.566	1.04638641
647.762	1.04414151
647.958	1.04229956
648.154	1.03991825
648.35	1.03759098
648.546	1.03520255
648.742	1.03301885
648.937	1.03103257
649.133	1.02923396
649.329	1.02674339
649.525	1.02467243
649.721	1.0223773
649.917	1.02040926
650.113	1.01802366
650.309	1.01586757
650.504	1.01335099
650.7	1.01104842
650.896	1.00856604
651.092	1.00619762
651.287	1.0037465
651.483	1.00147301
651.679	0.9991999
651.875	0.99693207
652.07	0.99467926
652.266	0.99246878
652.462	0.9901324
652.657	0.98771977
652.853	0.98522177
653.048	0.98265021
653.244	0.98023297
653.44	0.97771876
653.635	0.97515695
653.831	0.97280523
654.026	0.97072535
654.222	0.96842515
654.417	0.96628636
654.613	0.96375042
654.808	0.96114889
655.004	0.95889413
655.199	0.95648528
655.394	0.95404666
655.59	0.95173853
655.785	0.94905434
655.98	0.94682147
656.176	0.94447048
656.371	0.94210214
656.566	0.93976798
656.762	0.93724697
656.957	0.93477817
657.152	0.93248854
657.348	0.93011681
657.543	0.92803068
657.738	0.92559714
657.933	0.92327876
658.128	0.92076692
658.324	0.91830312
658.519	0.91603365
658.714	0.91364189
658.909	0.91093941
659.104	0.90866769
659.299	0.90614765
659.494	0.90376919
659.689	0.90150842
659.884	0.89885306
660.079	0.8962987
660.274	0.89404091
660.469	0.89161024
660.664	0.8894248
660.859	0.88704412
661.054	0.88461135
661.249	0.88233265
661.444	0.87997978
661.639	0.87748439
661.834	0.8748954
662.029	0.87230174
662.224	0.86971695
662.418	0.8671604
662.613	0.86473348
662.808	0.86208395
663.003	0.85954746
663.198	0.85715835
663.392	0.85444695
663.587	0.85229108
663.782	0.84985233
663.977	0.84729456
664.171	0.84499023
664.366	0.84260223
664.561	0.83999475
664.755	0.8376156
664.95	0.83497818
665.144	0.83251697
665.339	0.83024636
665.534	0.82786803
665.728	0.82546738
665.923	0.82304032
666.117	0.82063192
666.312	0.8182061
666.506	0.81573032
666.701	0.8129783
666.895	0.81039642
667.09	0.8077814
667.284	0.80542515
667.479	0.80291112
667.673	0.80032469
667.867	0.79781302
668.062	0.79537408
668.256	0.79295311
668.45	0.79066386
668.645	0.78811079
668.839	0.78563722
669.033	0.7832384
669.228	0.78079022
669.422	0.77845666
669.616	0.77592924
669.81	0.77350121
670.004	0.77113332
670.199	0.7688481
670.393	0.76653814
670.587	0.76413871
670.781	0.76177429
670.975	0.75935182
671.169	0.75666257
671.363	0.75412084
671.558	0.75137767
671.752	0.74878433
671.946	0.74641551
672.14	0.74394746
672.334	0.7414945
672.528	0.73928658
672.722	0.7366636
672.916	0.73435709
673.11	0.73179643
673.304	0.72943322
673.497	0.72691511
673.691	0.72471249
673.885	0.72223481
674.079	0.7200945
674.273	0.71780866
674.467	0.71566007
674.661	0.71320006
674.854	0.71072478
675.048	0.70815681
675.242	0.70569829
675.436	0.7031226
675.629	0.70054846
675.823	0.6979833
676.017	0.69568165
676.211	0.69318781
676.404	0.69064191
676.598	0.68827264
676.792	0.68590963
676.985	0.68351124
677.179	0.68093549
677.372	0.67836841
677.566	0.67607442
677.76	0.67388943
677.953	0.67131766
678.147	0.66894252
678.34	0.66650025
678.534	0.66407931
678.727	0.66154186
678.921	0.65912942
679.114	0.65649831
679.307	0.65426173
679.501	0.65184767
679.694	0.64956149
679.888	0.64739842
680.081	0.64526772
680.274	0.64270509
680.468	0.64048261
680.661	0.63818424
680.854	0.63596553
681.048	0.6337592
681.241	0.63136875
681.434	0.62906642
681.627	0.62697263
681.821	0.624629
682.014	0.6222344
682.207	0.61971708
682.4	0.61733469
682.593	0.61505404
682.786	0.612791
682.98	0.61056872
683.173	0.60851788
683.366	0.60642517
683.559	0.60445479
683.752	0.60228535
683.945	0.6000374
684.138	0.59779591
684.331	0.59546714
684.524	0.59320817
684.717	0.59094047
684.91	0.58874958
685.103	0.58648968
685.296	0.58421656
685.489	0.58186862
685.682	0.57949548
685.874	0.57727866
686.067	0.57496898
686.26	0.57250703
686.453	0.57014513
686.646	0.56782622
686.839	0.56571731
687.031	0.56356148
687.224	0.56117729
687.417	0.55907916
687.61	0.55701042
687.802	0.55502703
687.995	0.55304001
688.188	0.55100478
688.38	0.54897745
688.573	0.54699904
688.766	0.5449342
688.958	0.5428068
689.151	0.54058975
689.343	0.53844303
689.536	0.53619154
689.729	0.53401643
689.921	0.53177327
690.114	0.52939292
690.306	0.5271265
690.499	0.52489324
690.691	0.52272402
690.884	0.52053467
691.076	0.51835783
691.268	0.51613208
691.461	0.51399199
691.653	0.51198275
691.846	0.50994946
692.038	0.5079308
692.23	0.50576598
692.423	0.50369863
692.615	0.50171254
692.807	0.49978536
692.999	0.49775571
693.192	0.49571402
693.384	0.49374853
693.576	0.49176748
693.768	0.48980716
693.961	0.48774666
694.153	0.48572117
694.345	0.4835964
694.537	0.48153089
694.729	0.47940568
694.921	0.47734989
695.113	0.4753449
695.305	0.47335477
695.498	0.47130264
695.69	0.46938484
695.882	0.4673733
696.074	0.4654829
696.266	0.46353175
696.458	0.46143235
696.65	0.45942568
696.842	0.45745266
697.033	0.45550211
697.225	0.45350511
697.417	0.45146567
697.609	0.44944941
697.801	0.44753377
697.993	0.44561767
698.185	0.44368546
698.376	0.44181814
698.568	0.43999084
698.76	0.43829909
698.952	0.43655345
699.144	0.43483671
699.335	0.43314033
699.527	0.43128495
699.719	0.42933628
699.91	0.42743029
700.102	0.42544449
700.294	0.42349014
700.485	0.42155362
700.677	0.41948163
700.869	0.41769279
701.06	0.41587693
701.252	0.41413391
701.443	0.41227496
701.635	0.41044194
701.826	0.40850893
702.018	0.40678459
702.209	0.40499758
702.401	0.40323632
702.592	0.40142186
702.784	0.39968149
702.975	0.39791775
703.166	0.39626387
703.358	0.3944896
703.549	0.39282521
703.741	0.39107792
703.932	0.38934255
704.123	0.38749794
704.315	0.3857851
704.506	0.38414349
704.697	0.38242465
704.888	0.38065246
705.08	0.37890847
705.271	0.37720945
705.462	0.37555664
705.653	0.37380709
705.844	0.37199231
706.035	0.37027753
706.227	0.368622
706.418	0.36691844
706.609	0.36536097
706.8	0.363833
706.991	0.36235096
707.182	0.36086769
707.373	0.3592363
707.564	0.35763291
707.755	0.35607256
707.946	0.35440491
708.137	0.35275694
708.328	0.35112302
708.519	0.34947243
708.71	0.3479355
708.901	0.34628474
709.092	0.34468247
709.283	0.34310438
709.473	0.34150414
709.664	0.33996134
709.855	0.3384439
710.046	0.33700072
710.237	0.33554987
710.427	0.33402775
710.618	0.33251071
710.809	0.33090615
711	0.32942727
711.19	0.32787547
711.381	0.32632112
711.572	0.32478205
711.762	0.32338832
711.953	0.32189135
712.144	0.32039928
712.334	0.31884528
712.525	0.31752826
712.715	0.31605854
712.906	0.31462821
713.097	0.31310507
713.287	0.31167237
713.478	0.31024252
713.668	0.30885403
713.859	0.30729702
714.049	0.30595222
714.239	0.30461149
714.43	0.30331461
714.62	0.30204294
714.811	0.30077042
715.001	0.29947732
715.191	0.29819973
715.382	0.29673171
715.572	0.29531051
715.762	0.29381904
715.953	0.29227672
716.143	0.29070812
716.333	0.28915116
716.523	0.28762214
716.714	0.28625859
716.904	0.28481106
717.094	0.28350214
717.284	0.28228421
717.474	0.28107637
717.664	0.27996588
717.855	0.27871391
718.045	0.277396
718.235	0.27611913
718.425	0.27481547
718.615	0.27344399
718.805	0.27214542
718.995	0.27084943
719.185	0.26969428
719.375	0.26853269
719.565	0.2673641
719.755	0.26619261
719.945	0.2651098
720.135	0.26403379
720.325	0.26290434
720.515	0.2617589
720.704	0.26060959
720.894	0.25943118
721.084	0.25816415
721.274	0.25691468
721.464	0.25565428
721.654	0.25442328
721.843	0.25321485
722.033	0.2520037
722.223	0.25086566
722.413	0.24982822
722.602	0.24872695
722.792	0.24763255
722.982	0.24651695
723.171	0.24544408
723.361	0.24431834
723.55	0.24318706
723.74	0.24209613
723.93	0.24097764
724.119	0.23992948
724.309	0.23877452
724.498	0.23758428
724.688	0.23642886
724.877	0.2353132
725.067	0.23420247
725.256	0.23310365
725.446	0.23190956
725.635	0.23078949
725.825	0.22964433
726.014	0.22858147
726.203	0.22749611
726.393	0.22632954
726.582	0.22513236
726.771	0.22405164
726.961	0.2229331
727.15	0.22186846
727.339	0.2207927
727.529	0.21974642
727.718	0.21865583
727.907	0.21764227
728.096	0.21664423
728.286	0.21578625
728.475	0.21490003
728.664	0.21401202
728.853	0.21315297
729.042	0.212264
729.231	0.21133045
729.42	0.21027402
729.609	0.20920893
729.799	0.20805932
729.988	0.20696992
730.177	0.20576591
730.366	0.20461228
730.555	0.20347552
730.744	0.20243115
730.933	0.20140651
731.122	0.20042344
731.31	0.19944251
731.499	0.19854837
731.688	0.19773412
731.877	0.19696643
732.066	0.19618244
732.255	0.19534375
732.444	0.19452522
732.632	0.19370305
732.821	0.19291817
733.01	0.19215696
733.199	0.19135413
733.388	0.19058755
733.576	0.18983342
733.765	0.18906717
733.954	0.1882907
734.142	0.18737705
734.331	0.18639343
734.52	0.18543798
734.708	0.18444916
734.897	0.18347582
735.086	0.18252099
735.274	0.18154114
735.463	0.18062972
735.651	0.17970682
735.84	0.17882605
736.028	0.17798915
736.217	0.17723063
736.405	0.17644986
736.594	0.17570059
736.782	0.17492083
736.971	0.17420025
737.159	0.17344372
737.347	0.17258497
737.536	0.17156146
737.724	0.17050914
737.912	0.16943922
738.101	0.16845904
738.289	0.16747874
738.477	0.16657004
738.666	0.165666
738.854	0.16490328
739.042	0.16419857
739.23	0.16352237
739.418	0.16284122
739.607	0.16217618
739.795	0.16153275
739.983	0.1609802
740.171	0.16041107
740.359	0.15986712
740.547	0.15926271
740.735	0.15858998
740.923	0.1579565
741.112	0.15729867
741.3	0.15657673
741.488	0.15580218
741.676	0.15495982
741.864	0.15421937
742.052	0.15352812
742.239	0.15274957
742.427	0.15192787
742.615	0.15111036
742.803	0.15032162
742.991	0.14967495
743.179	0.14901418
743.367	0.14838217
743.555	0.14790645
743.742	0.14748011
743.93	0.14707268
744.118	0.14650803
744.306	0.14588658
744.494	0.14519577
744.681	0.14455629
744.869	0.14378661
745.057	0.1429872
745.244	0.14221897
745.432	0.141681
745.62	0.14112144
745.807	0.14060152
745.995	0.14001851
746.182	0.13942242
746.37	0.13888583
746.558	0.13836177
746.745	0.13773724
746.933	0.13715073
747.12	0.13664683
747.308	0.13616084
747.495	0.13573774
747.683	0.13521373
747.87	0.13462023
748.057	0.13404819
748.245	0.13340376
748.432	0.13270715
748.62	0.13195182
748.807	0.13118518
748.994	0.13051649
749.182	0.1299234
749.369	0.1293625
749.556	0.12880686
749.743	0.12822609
749.931	0.12770658
750.118	0.12729153
750.305	0.12679667
750.492	0.12634167
750.68	0.12593751
750.867	0.12557164
751.054	0.12522292
751.241	0.12493964
751.428	0.12456319
751.615	0.12422971
751.802	0.1238882
751.989	0.123447
752.176	0.12312171
752.363	0.12278212
752.55	0.12236874
752.737	0.12180261
752.924	0.12117598
753.111	0.12049156
753.298	0.11983766
753.485	0.11911932
753.672	0.11845055
753.859	0.11774903
754.046	0.1172414
754.233	0.11681354
754.42	0.1164232
754.606	0.11600891
754.793	0.11565359
754.98	0.11522282
755.167	0.11479682
755.353	0.11438726
755.54	0.11386006
755.727	0.113342
755.914	0.11284584
756.1	0.11236474
756.287	0.11188867
756.474	0.11144843
756.66	0.11089881
756.847	0.11040615
757.033	0.10989855
757.22	0.10940216
757.407	0.10885531
757.593	0.10827189
757.78	0.10770703
757.966	0.10724358
758.153	0.10676787
758.339	0.10633878
758.526	0.10588931
758.712	0.10541378
758.898	0.10511797
759.085	0.10481983
759.271	0.10452478
759.458	0.1043264
759.644	0.10419282
759.83	0.10406573
760.017	0.10398194
760.203	0.10376805
760.389	0.10351744
760.576	0.10316402
760.762	0.10275428
760.948	0.1021095
761.134	0.1015216
761.32	0.10092804
761.507	0.10048982
761.693	0.10004966
761.879	0.09964012
762.065	0.09926599
762.251	0.09898488
762.437	0.0986236
762.623	0.09823303
762.809	0.09779464
762.995	0.09738716
763.181	0.09702603
763.367	0.09674565
763.553	0.09652681
763.739	0.09629915
763.925	0.09603297
764.111	0.09577087
764.297	0.09560049
764.483	0.09534726
764.669	0.09505184
764.855	0.09467187
765.041	0.09439987
765.227	0.09409277
765.412	0.09367366
765.598	0.09310697
765.784	0.09269418
765.97	0.09232071
766.156	0.09203628
766.341	0.09173929
766.527	0.09147868
766.713	0.09122929
766.898	0.09108989
767.084	0.0908983
767.27	0.09062072
767.455	0.09038233
767.641	0.0900686
767.827	0.08980281
768.012	0.08964821
768.198	0.08948183
768.383	0.08928294
768.569	0.08912483
768.754	0.08899257
768.94	0.08889659
769.125	0.08877946
769.311	0.08858262
769.496	0.0883167
769.682	0.08815668
769.867	0.0879653
770.052	0.08769081
770.238	0.08737924
770.423	0.08702464
770.608	0.08674056
770.794	0.08643054
770.979	0.08608731
771.164	0.08576319
771.35	0.08540391
771.535	0.08508826
771.72	0.08473611
771.905	0.08440838
772.09	0.0841395
772.276	0.0838283
772.461	0.08353911
772.646	0.08327113
772.831	0.08295445
773.016	0.08280015
773.201	0.0826238
773.386	0.08243386
773.571	0.082209
773.756	0.08196547
773.941	0.08166645
774.126	0.08149764
774.311	0.08128021
774.496	0.08099546
774.681	0.08078301
774.866	0.08064759
775.051	0.0805648
775.236	0.08061893
775.421	0.08063153
775.606	0.08066158
775.791	0.08062338
775.976	0.08050895
776.16	0.08036312
776.345	0.08014076
776.53	0.07978356
776.715	0.07939618
776.899	0.07896938
777.084	0.07861631
777.269	0.07832706
777.454	0.07797968
777.638	0.07766992
777.823	0.07749785
778.008	0.07733362
778.192	0.0771743
778.377	0.07703878
778.561	0.07687454
778.746	0.07675107
778.931	0.07669469
779.115	0.07645798
779.3	0.0762131
779.484	0.07602606
779.669	0.07593984
779.853	0.07581251
780.037	0.07568546
780.222	0.0754381
780.406	0.07532254
780.591	0.07518282
780.775	0.07493496
780.959	0.07463932
781.144	0.0743478
781.328	0.07402213
781.512	0.07368256
781.697	0.07335376
781.881	0.07303775
782.065	0.07269465
782.249	0.07226146
782.434	0.07188994
782.618	0.0716139
782.802	0.07141729
782.986	0.07121881
783.17	0.07098409
783.354	0.07087375
783.539	0.07082064
783.723	0.07075542
783.907	0.07064665
784.091	0.07053265
784.275	0.07040177
784.459	0.0702785
784.643	0.07018659
784.827	0.07012716
785.011	0.07002308
785.195	0.06984342
785.379	0.06960882
785.563	0.06938194
785.747	0.06923587
785.93	0.0689915
786.114	0.06867363
786.298	0.06844935
786.482	0.06830234
786.666	0.06823014
786.85	0.06821279
787.033	0.06811027
787.217	0.06814225
787.401	0.06819893
787.585	0.06821671
787.768	0.06823039
787.952	0.06825968
788.136	0.06816662
788.319	0.06809201
788.503	0.06799742
788.687	0.06792851
788.87	0.06780929
789.054	0.06771071
789.237	0.06757463
789.421	0.06747328
789.605	0.06738316
789.788	0.06717896
789.972	0.06700923
790.155	0.06690022
790.338	0.06680331
790.522	0.06670362
790.705	0.06661597
790.889	0.06650843
791.072	0.06647777
791.256	0.06637125
791.439	0.06621199
791.622	0.06599465
791.806	0.06585081
791.989	0.06568927
792.172	0.06558691
792.355	0.06530429
792.539	0.06514156
792.722	0.06494202
792.905	0.06469032
793.088	0.06433262
793.271	0.06406344
793.455	0.0638311
793.638	0.06374661
793.821	0.0634578
794.004	0.0632504
794.187	0.06314995
794.37	0.06307221
794.553	0.06303712
794.736	0.06291922
794.919	0.06279396
795.102	0.06290953
795.285	0.06308384
795.468	0.06322082
795.651	0.06350765
795.834	0.06373099
796.017	0.06408593
796.2	0.06436506
796.383	0.0645138
796.566	0.06460187
796.749	0.06471879
796.931	0.06473406
797.114	0.06463333
797.297	0.06444677
797.48	0.06427399
797.663	0.06404106
797.845	0.06382954
798.028	0.06355146
798.211	0.06322727
798.393	0.06302289
798.576	0.06277429
798.759	0.06260598
798.941	0.06249494
799.124	0.0623009
799.307	0.06215855
799.489	0.06200373
799.672	0.06183244
799.854	0.06167013
800.037	0.06142863
800.219	0.0612028
800.402	0.06099017
800.584	0.06082891
800.767	0.06070884
800.949	0.06063058
801.132	0.06058002
801.314	0.06062442
801.496	0.0605968
801.679	0.06061002
801.861	0.06048816
802.043	0.06043748
802.226	0.06024045
802.408	0.06011344
802.59	0.0601011
802.772	0.06021808
802.955	0.0603566
803.137	0.06052493
803.319	0.06061436
803.501	0.06072421
803.684	0.0607702
803.866	0.06071416
804.048	0.06062668
804.23	0.06047783
804.412	0.06038249
804.594	0.06032283
804.776	0.06033614
804.958	0.06036718
805.14	0.06029195
805.322	0.06015242
805.504	0.06003736
805.686	0.05992368
805.868	0.05976901
806.05	0.05968021
806.232	0.05961798
806.414	0.05972636
806.596	0.05992881
806.778	0.06011473
806.96	0.06027726
807.141	0.06044882
807.323	0.06056432
807.505	0.06059744
807.687	0.06042829
807.869	0.0600729
808.05	0.05975714
808.232	0.05943681
808.414	0.05904587
808.595	0.05855146
808.777	0.05815833
808.959	0.05791699
809.14	0.0578649
809.322	0.05784021
809.504	0.05788142
809.685	0.05803364
809.867	0.05821151
810.048	0.05828267
810.23	0.05825209
810.411	0.05810847
810.593	0.05801907
810.774	0.05793189
810.956	0.05775111
811.137	0.05770919
811.319	0.05768139
811.5	0.05764395
811.681	0.0577541
811.863	0.05772809
812.044	0.0576837
812.225	0.05770812
812.407	0.05752299
812.588	0.05729839
812.769	0.05710649
812.951	0.05686591
813.132	0.05674693
813.313	0.05665685
813.494	0.05655104
813.675	0.0565185
813.857	0.05667277
814.038	0.05684148
814.219	0.05690265
814.4	0.05690535
814.581	0.05684505
814.762	0.05676806
814.943	0.05667748
815.124	0.05649355
815.305	0.05631535
815.486	0.05616617
815.667	0.05597893
815.848	0.05581965
816.029	0.05566926
816.21	0.05564736
816.391	0.05561744
816.572	0.05554313
816.753	0.05552392
816.934	0.05554435
817.115	0.05552191
817.295	0.05544553
817.476	0.05526073
817.657	0.05509888
817.838	0.05507906
818.019	0.05509107
818.199	0.05507873
818.38	0.05506317
818.561	0.05517284
818.741	0.05532075
818.922	0.05553138
819.103	0.05570195
819.283	0.05585018
819.464	0.05603706
819.645	0.05625867
819.825	0.05644798
820.006	0.05659279
820.186	0.05665469
820.367	0.05671268
820.547	0.05670075
820.728	0.05672416
820.908	0.05662568
821.089	0.05642497
821.269	0.0562669
821.45	0.05620161
821.63	0.05613119
821.81	0.05611979
821.991	0.05597286
822.171	0.05598045
822.351	0.0560502
822.532	0.05612238
822.712	0.05600468
822.892	0.05592839
823.072	0.05585564
823.253	0.05582835
823.433	0.05576604
823.613	0.05563627
823.793	0.05554802
823.973	0.05569885
824.154	0.05581445
824.334	0.05595757
824.514	0.05610387
824.694	0.05629121
824.874	0.05651836
825.054	0.05665998
825.234	0.05664228
825.414	0.05651213
825.594	0.05632789
825.774	0.05611363
825.954	0.05589378
826.134	0.05575622
826.314	0.05567017
826.494	0.05551309
826.674	0.05536755
826.854	0.05527904
827.033	0.05527837
827.213	0.05527487
827.393	0.0551938
827.573	0.05518543
827.753	0.05522462
827.932	0.0554226
828.112	0.05559723
828.292	0.05565907
828.472	0.05558112
828.651	0.05558822
828.831	0.05553739
829.011	0.05553228
829.19	0.05538315
829.37	0.05526985
829.549	0.05522009
829.729	0.05527528
829.909	0.05527813
830.088	0.05522311
830.268	0.0552231
830.447	0.05520812
830.627	0.05521628
830.806	0.05530426
830.986	0.05531936
831.165	0.05524691
831.344	0.05514867
831.524	0.05489072
831.703	0.05473622
831.883	0.05449585
832.062	0.05419857
832.241	0.05401374
832.421	0.0539642
832.6	0.05404448
832.779	0.05425371
832.958	0.05435491
833.138	0.05439925
833.317	0.05442065
833.496	0.0544068
833.675	0.05438179
833.854	0.05428466
834.034	0.05414757
834.213	0.05400428
834.392	0.054003
834.571	0.05402634
834.75	0.05403611
834.929	0.05404235
835.108	0.05402665
835.287	0.05399653
835.466	0.05407545
835.645	0.05425999
835.824	0.05441755
836.003	0.05448599
836.182	0.05449244
836.361	0.05452284
836.54	0.05453475
836.719	0.05466524
836.897	0.05449962
837.076	0.054332
837.255	0.0543129
837.434	0.05427237
837.613	0.05425158
837.791	0.05423123
837.97	0.05405182
838.149	0.0539943
838.328	0.05393768
838.506	0.05374258
838.685	0.05364652
838.864	0.05353389
839.042	0.05355496
839.221	0.05360757
839.4	0.05363233
839.578	0.05371421
839.757	0.05385923
839.935	0.05388186
840.114	0.05385258
840.292	0.05371085
840.471	0.0535006
840.649	0.05336109
840.828	0.05327858
841.006	0.05312907
841.185	0.05317665
841.363	0.05325938
841.541	0.05335934
841.72	0.05350921
841.898	0.05371967
842.076	0.05385299
842.255	0.05401872
842.433	0.05418295
842.611	0.0542712
842.789	0.05431995
842.968	0.05443701
843.146	0.05440858
843.324	0.05434796
843.502	0.05440156
843.68	0.0542855
843.859	0.05427102
844.037	0.05416531
844.215	0.05402081
844.393	0.05384255
844.571	0.05371216
844.749	0.05343485
844.927	0.05327424
845.105	0.05303264
845.283	0.05290838
845.461	0.05282613
845.639	0.05277248
845.817	0.05270825
845.995	0.05271273
846.173	0.05269999
846.351	0.05267661
846.529	0.05263228
846.706	0.05258178
846.884	0.05261644
847.062	0.05256111
847.24	0.05255055
847.418	0.05257043
847.595	0.0527233
847.773	0.05290919
847.951	0.05298051
848.129	0.05291372
848.306	0.05291783
848.484	0.0528526
848.662	0.05267555
848.839	0.05248652
849.017	0.05228387
849.194	0.0520858
849.372	0.05205311
849.549	0.05207396
849.727	0.05200454
849.905	0.05198409
850.082	0.05195537
850.26	0.05198883
850.437	0.05211754
850.614	0.0521427
850.792	0.05209464
850.969	0.05212694
851.147	0.05208333
851.324	0.05209964
851.501	0.05197318
851.679	0.05192487
851.856	0.05191998
852.033	0.05205563
852.211	0.05229345
852.388	0.05260946
852.565	0.05277095
852.742	0.0531154
852.92	0.05322698
853.097	0.05327374
853.274	0.05322315
853.451	0.05310651
853.628	0.05297512
853.805	0.05282518
853.982	0.05252176
854.159	0.05224795
854.336	0.05203507
854.514	0.05189418
854.691	0.05184344
854.868	0.0518448
855.045	0.05200064
855.221	0.05221044
855.398	0.05241644
855.575	0.05253234
855.752	0.05269298
855.929	0.05285768
856.106	0.05289194
856.283	0.05283173
856.46	0.05271519
856.637	0.05275883
856.813	0.05288264
856.99	0.05292167
857.167	0.05276179
857.344	0.05270338
857.52	0.05262543
857.697	0.05249122
857.874	0.05231999
858.05	0.05228977
858.227	0.05217846
858.404	0.05221028
858.58	0.052249
858.757	0.05222478
858.933	0.05228963
859.11	0.05234636
859.287	0.05219146
859.463	0.05207939
859.64	0.05199676
859.816	0.05186256
859.993	0.05188181
860.169	0.05200012
860.345	0.05202819
860.522	0.05212827
860.698	0.0522591
860.875	0.05234845
861.051	0.05258929
861.227	0.0526828
861.404	0.05270663
861.58	0.05279881
861.756	0.05280923
861.932	0.0527673
862.109	0.05272615
862.285	0.05252334
862.461	0.05240898
862.637	0.05224937
862.813	0.05207823
862.99	0.05201829
863.166	0.05177525
863.342	0.05159546
863.518	0.05145973
863.694	0.05131069
863.87	0.0511768
864.046	0.05106108
864.222	0.05079453
864.398	0.05082563
864.574	0.05070877
864.75	0.05062431
864.926	0.05056664
865.102	0.05052857
865.278	0.05039736
865.454	0.0503695
865.63	0.05030712
865.805	0.05036245
865.981	0.05039963
866.157	0.05053206
866.333	0.05067205
866.509	0.05090417
866.684	0.05124828
866.86	0.05150034
867.036	0.05167173
867.212	0.05166323
867.387	0.05161674
867.563	0.05150241
867.739	0.05139368
867.914	0.05120428
868.09	0.05105284
868.265	0.05077715
868.441	0.05065147
868.617	0.05049535
868.792	0.05049064
868.968	0.05049109
869.143	0.05042997
869.319	0.05043679
869.494	0.05062876
869.67	0.05086888
869.845	0.05110023
870.02	0.05123724
870.196	0.05133215
870.371	0.05146333
870.546	0.05156185
870.722	0.05170843
870.897	0.05177536
871.072	0.05173584
871.248	0.05168552
871.423	0.05166904
871.598	0.05164416
871.773	0.05150772
871.949	0.05136628
872.124	0.05124619
872.299	0.05117986
872.474	0.05110625
872.649	0.05101524
872.824	0.05083784
872.999	0.05078425
873.174	0.05063122
873.349	0.05058828
873.524	0.05045344
873.699	0.05031975
873.874	0.05011263
874.049	0.05006869
874.224	0.04990785
874.399	0.04977711
874.574	0.0495564
874.749	0.04942598
874.924	0.04939069
875.099	0.04944154
875.274	0.0495295
875.449	0.04966909
875.623	0.04963957
875.798	0.0494764
875.973	0.04945887
876.148	0.04936786
876.322	0.04924281
876.497	0.04903825
876.672	0.04883138
876.846	0.04887153
877.021	0.04896906
877.196	0.04898512
877.37	0.04912311
877.545	0.04925135
877.72	0.04931847
877.894	0.04935162
878.069	0.04925879
878.243	0.04916757
878.418	0.04891358
878.592	0.04858402
878.767	0.04826372
878.941	0.04802586
879.116	0.04792351
879.29	0.04790293
879.464	0.04794607
879.639	0.04815717
879.813	0.04831343
879.987	0.04849682
880.162	0.0488073
880.336	0.04893137
880.51	0.04902525
880.685	0.04912924
880.859	0.04922955
881.033	0.04933822
881.207	0.04934482
881.381	0.04929023
881.556	0.04925049
881.73	0.04928537
881.904	0.04937844
882.078	0.04940993
882.252	0.04942744
882.426	0.049409
882.6	0.04925398
882.774	0.04915338
882.948	0.04909776
883.122	0.04882856
883.296	0.04862829
883.47	0.04845998
883.644	0.04842692
883.818	0.0484511
883.992	0.04854071
884.166	0.04855562
884.34	0.04859853
884.514	0.0485879
884.687	0.04855234
884.861	0.0484966
885.035	0.04832514
885.209	0.04804797
885.382	0.04766438
885.556	0.04748167
885.73	0.04735062
885.904	0.04722678
886.077	0.04716473
886.251	0.04720753
886.425	0.04721003
886.598	0.04739104
886.772	0.04750077
886.945	0.04753564
887.119	0.04771057
887.292	0.04778374
887.466	0.04793113
887.64	0.04814572
887.813	0.04836713
887.986	0.04850685
888.16	0.04871727
888.333	0.04876249
888.507	0.04875234
888.68	0.04868929
888.854	0.04857021
889.027	0.04833605
889.2	0.04826835
889.374	0.04807059
889.547	0.04792842
889.72	0.04790714
889.893	0.0478318
890.067	0.04774846
890.24	0.04759127
890.413	0.04726461
890.586	0.04710475
890.759	0.04704795
890.933	0.04687891
891.106	0.04677056
891.279	0.04677952
891.452	0.04680628
891.625	0.04694017
891.798	0.04706815
891.971	0.04705828
892.144	0.04710369
892.317	0.04724591
892.49	0.04734811
892.663	0.04740608
892.836	0.04737175
893.009	0.04733003
893.182	0.04727813
893.355	0.04733502
893.527	0.04733034
893.7	0.04721807
893.873	0.04723993
894.046	0.04716516
894.219	0.04701703
894.391	0.04702663
894.564	0.04698212
894.737	0.0468658
894.91	0.04689814
895.082	0.04679322
895.255	0.04680265
895.428	0.04677721
895.6	0.04652407
895.773	0.04609545
895.945	0.04576827
896.118	0.04555346
896.291	0.04540304
896.463	0.04526262
896.636	0.0452076
896.808	0.04518529
896.981	0.04530469
897.153	0.04538346
897.326	0.04528773
897.498	0.04518287
897.67	0.04506788
897.843	0.04484478
898.015	0.04480503
898.187	0.04470783
898.36	0.04457501
898.532	0.04455977
898.704	0.04462459
898.877	0.04458329
899.049	0.04465416
899.221	0.04455143
899.393	0.0445299
899.566	0.04448223
899.738	0.04423733
899.91	0.04405245
900.082	0.04388751
900.254	0.04377264
900.426	0.04375876
900.598	0.04380205
900.77	0.04389102
900.942	0.0441366
901.114	0.04427938
901.286	0.04455041
901.458	0.04468965
901.63	0.04476381
901.802	0.04479281
901.974	0.04475869
902.146	0.04472225
902.318	0.0446604
902.49	0.04464088
902.662	0.04475309
902.834	0.04477525
903.005	0.04476218
903.177	0.04473807
903.349	0.0446865
903.521	0.04468775
903.693	0.04455707
903.864	0.04446213
904.036	0.0444173
904.208	0.04443042
904.379	0.04442138
904.551	0.04442508
904.723	0.04431968
904.894	0.04429684
905.066	0.04425523
905.237	0.04410565
905.409	0.04398526
905.58	0.04383888
905.752	0.04360767
905.923	0.04341454
906.095	0.04324128
906.266	0.04291918
906.438	0.0427431
906.609	0.04250892
906.78	0.04234107
906.952	0.04220694
907.123	0.04212466
907.295	0.04222438
907.466	0.04240456
907.637	0.04258606
907.808	0.04269632
907.98	0.0428773
908.151	0.04302475
908.322	0.04316559
908.493	0.04302266
908.665	0.04294466
908.836	0.04283439
909.007	0.04284652
909.178	0.0428401
909.349	0.04293258
909.52	0.04292691
909.691	0.04293194
909.862	0.04286396
910.033	0.04267779
910.204	0.04245041
910.375	0.04215067
910.546	0.04188993
910.717	0.04157556
910.888	0.04136029
911.059	0.04114822
911.23	0.04116294
911.401	0.04115718
911.572	0.0411668
911.742	0.04112803
911.913	0.04120041
912.084	0.04126453
912.255	0.04139881
912.426	0.04147815
912.596	0.04143255
912.767	0.04135712
912.938	0.04128692
913.108	0.04115184
913.279	0.04103444
913.45	0.04080208
913.62	0.04054355
913.791	0.04038678
913.962	0.04020793
914.132	0.0400405
914.303	0.04001231
914.473	0.03993981
914.644	0.03987775
914.814	0.03993766
914.985	0.04005006
915.155	0.04025453
915.326	0.04033758
915.496	0.04041694
915.666	0.04044569
915.837	0.04046005
916.007	0.04027616
916.177	0.03993156
916.348	0.03971165
916.518	0.03950299
916.688	0.03934636
916.858	0.03923134
917.029	0.03932341
917.199	0.03940307
917.369	0.03969681
917.539	0.03971111
917.709	0.03986099
917.88	0.04000825
918.05	0.04019948
918.22	0.04023654
918.39	0.04011977
918.56	0.03994891
918.73	0.03995933
918.9	0.04005492
919.07	0.04001684
919.24	0.04008694
919.41	0.04021072
919.58	0.04048141
919.75	0.0406426
919.92	0.04072178
920.09	0.04064185
920.26	0.04068194
920.429	0.04058302
920.599	0.04026813
920.769	0.04006672
920.939	0.03992978
921.109	0.03992062
921.278	0.03996222
921.448	0.03988783
921.618	0.03987784
921.787	0.03993161
921.957	0.04002013
922.127	0.0401787
922.296	0.0401948
922.466	0.04013262
922.636	0.04018309
922.805	0.04008544
922.975	0.04004051
923.144	0.03998378
923.314	0.0397133
923.483	0.03958625
923.653	0.03952798
923.822	0.03938973
923.992	0.03937592
924.161	0.03935746
924.331	0.03929413
924.5	0.03938172
924.669	0.03921859
924.839	0.03910274
925.008	0.03888116
925.177	0.03856734
925.347	0.03832683
925.516	0.0381911
925.685	0.03795868
925.854	0.0380403
926.023	0.03795369
926.193	0.03822869
926.362	0.03839319
926.531	0.03869613
926.7	0.03894166
926.869	0.03931536
927.038	0.03936175
927.207	0.03956671
927.376	0.03938729
927.545	0.03935039
927.715	0.03911684
927.884	0.03888572
928.052	0.03848532
928.221	0.03825589
928.39	0.03782112
928.559	0.03759824
928.728	0.0374725
928.897	0.03737387
929.066	0.03707599
929.235	0.03702474
929.404	0.03684733
929.572	0.03687138
929.741	0.03678512
929.91	0.0366486
930.079	0.0363069
930.247	0.03636317
930.416	0.0361322
930.585	0.03609174
930.753	0.03598941
930.922	0.03589672
931.091	0.0357608
931.259	0.03583807
931.428	0.03566345
931.596	0.03570279
931.765	0.03573459
931.934	0.03570204
932.102	0.03562488
932.27	0.03563572
932.439	0.03569372
932.607	0.03578308
932.776	0.0357824
932.944	0.03575582
933.113	0.03583156
933.281	0.03597376
933.449	0.03623773
933.618	0.03623285
933.786	0.03618586
933.954	0.03619919
934.123	0.0362614
934.291	0.03634615
934.459	0.03652269
934.627	0.03643
934.795	0.03649145
934.964	0.0366709
935.132	0.03688374
935.3	0.03685873
935.468	0.03685259
935.636	0.03663098
935.804	0.03645782
935.972	0.03648421
936.14	0.03645699
936.308	0.0363677
936.476	0.03645523
936.644	0.03669568
936.812	0.03705579
936.98	0.03760162
937.148	0.03798497
937.316	0.03834521
937.484	0.03873093
937.652	0.03933707
937.82	0.03943199
937.987	0.03970453
938.155	0.03992944
938.323	0.04020106
938.491	0.04032192
938.658	0.0410282
938.826	0.04129405
938.994	0.04197457
939.162	0.04263882
939.329	0.04300776
939.497	0.04330157
939.665	0.0439298
939.832	0.04418195
940	0.04458922
940.167	0.04511784
940.335	0.04561051
940.502	0.04608417
940.67	0.04688138
940.837	0.04795302
941.005	0.04819878
941.172	0.04875898
941.34	0.04911987
941.507	0.04918549
941.674	0.04992634
941.842	0.05057883
942.009	0.05066939
942.177	0.05131567
942.344	0.05206183
942.511	0.05203508
942.678	0.05249461
942.846	0.05260793
943.013	0.05271316
943.18	0.05288599
943.347	0.05234943
943.514	0.05223381
943.682	0.05360831
943.849	0.05363918
944.016	0.05378609
944.183	0.05388382
944.35	0.05367645
944.517	0.05435925
944.684	0.05478106
944.851	0.05337319
945.018	0.05355076
945.185	0.05348557
945.352	0.05314462
945.519	0.05292946
945.686	0.0528481
945.853	0.05259347
946.02	0.05246291
946.187	0.05208362
946.353	0.0521016
946.52	0.05174544
946.687	0.05198328
946.854	0.05144347
947.021	0.05071715
947.187	0.04988177
947.354	0.04941991
947.521	0.04867798
947.687	0.04838708
947.854	0.04707761
948.021	0.0472209
948.187	0.04702582
948.354	0.04784234
948.52	0.04749603
948.687	0.04712857
948.854	0.04659061
949.02	0.04649995
949.187	0.04645394
949.353	0.04642164
949.52	0.04552683
949.686	0.04525735
949.852	0.04481919
950.019	0.04462262
950.185	0.04479337
950.352	0.04328657
950.518	0.04244788
950.684	0.04179444
950.851	0.04172125
951.017	0.04130032
951.183	0.04126799
951.349	0.04059607
951.516	0.0403211
951.682	0.04001927
951.848	0.03985294
952.014	0.0393336
952.18	0.03927125
952.346	0.03865404
952.512	0.03845871
952.679	0.0383166
952.845	0.03780812
953.011	0.03735549
953.177	0.03699729
953.343	0.03646285
953.509	0.03631289
953.675	0.03603052
953.841	0.03570645
954.007	0.03599606
954.172	0.03604249
954.338	0.03547199
954.504	0.03534131
954.67	0.03424458
954.836	0.03377118
955.002	0.03361448
955.167	0.03289561
955.333	0.03237139
955.499	0.03242446
955.665	0.03181023
955.83	0.03223056
955.996	0.03196006
956.162	0.03165424
956.327	0.03127202
956.493	0.03111097
956.659	0.03083998
956.824	0.03065522
956.99	0.0300247
957.155	0.02988451
957.321	0.02975638
957.486	0.02994829
957.652	0.02960596
957.817	0.02929955
957.983	0.02913312
958.148	0.02926523
958.314	0.02939853
958.479	0.02916706
958.644	0.02890307
958.81	0.02921802
958.975	0.02944333
959.14	0.02986642
959.306	0.02999868
959.471	0.02982645
959.636	0.02983017
959.801	0.02984763
959.967	0.02977299
960.132	0.02982743
960.297	0.02954353
960.462	0.02965373
960.627	0.02952972
960.792	0.0294881
960.957	0.02955574
961.123	0.0293394
961.288	0.02910306
961.453	0.02930805
961.618	0.02876694
961.783	0.02874729
961.948	0.02865486
962.113	0.02837246
962.277	0.0284052
962.442	0.02790632
962.607	0.02770638
962.772	0.02763663
962.937	0.02750363
963.102	0.02745729
963.267	0.02714716
963.431	0.02702272
963.596	0.02714289
963.761	0.02671745
963.926	0.02678699
964.09	0.02657749
964.255	0.02661106
964.42	0.026637
964.584	0.02626764
964.749	0.02657149
964.914	0.02644072
965.078	0.02619085
965.243	0.02614872
965.407	0.02604474
965.572	0.02593928
965.736	0.025976
965.901	0.02575857
966.065	0.02583533
966.23	0.02572325
966.394	0.02562778
966.559	0.02559222
966.723	0.02576839
966.887	0.02577897
967.052	0.02565732
967.216	0.02584047
967.38	0.02604252
967.545	0.02614582
967.709	0.02597598
967.873	0.02567148
968.037	0.02569895
968.202	0.02572219
968.366	0.02557359
968.53	0.02525541
968.694	0.02519923
968.858	0.02509339
969.022	0.0253396
969.187	0.02532194
969.351	0.02518637
969.515	0.0253318
969.679	0.0253809
969.843	0.02561576
970.007	0.02571374
970.171	0.02570128
970.335	0.02589793
970.499	0.02609136
970.662	0.0258092
970.826	0.0260021
970.99	0.02586926
971.154	0.02591657
971.318	0.02560504
971.482	0.02531922
971.645	0.0252609
971.809	0.02550091
971.973	0.02544399
972.137	0.02519969
972.3	0.0250251
972.464	0.02509429
972.628	0.02502538
972.791	0.02453301
972.955	0.02411771
973.119	0.02363778
973.282	0.02347687
973.446	0.02351735
973.609	0.02344771
973.773	0.02345609
973.936	0.02361515
974.1	0.02361602
974.263	0.0239826
974.427	0.02396438
974.59	0.02392289
974.754	0.02376238
974.917	0.02388776
975.08	0.02399826
975.244	0.02416084
975.407	0.02435087
975.57	0.02485255
975.734	0.02493355
975.897	0.02529753
976.06	0.02531515
976.223	0.02516789
976.387	0.02524515
976.55	0.02491098
976.713	0.0246302
976.876	0.02443995
977.039	0.02400893
977.202	0.02374769
977.365	0.0237545
977.528	0.02329901
977.692	0.02298732
977.855	0.0228481
978.018	0.02252873
978.181	0.02242967
978.344	0.02245079
978.506	0.02191376
978.669	0.02202288
978.832	0.02217775
978.995	0.02186485
979.158	0.02199074
979.321	0.02204596
979.484	0.02189773
979.646	0.02232748
979.809	0.02223728
979.972	0.02245582
980.135	0.02257233
980.297	0.02292455
980.46	0.02321413
980.623	0.02337315
980.786	0.02365965
980.948	0.02401228
981.111	0.02397698
981.273	0.02402053
981.436	0.02384865
981.599	0.02390756
981.761	0.02357573
981.924	0.02358021
982.086	0.02374519
982.249	0.02388225
982.411	0.02436921
982.573	0.02457594
982.736	0.02478553
982.898	0.0253095
983.061	0.02554127
983.223	0.02581028
983.385	0.02606066
983.548	0.02620714
983.71	0.02658928
983.872	0.02681682
984.034	0.02697096
984.197	0.02685462
984.359	0.02668661
984.521	0.02680273
984.683	0.02674839
984.845	0.02648723
985.008	0.02599796
985.17	0.02587565
985.332	0.02552657
985.494	0.02537723
985.656	0.02515504
985.818	0.02484905
985.98	0.02433784
986.142	0.02430945
986.304	0.0244599
986.466	0.02449114
986.628	0.02427796
986.79	0.02389721
986.952	0.02388351
987.113	0.02382253
987.275	0.0235781
987.437	0.02330729
987.599	0.02325505
987.761	0.02306864
987.922	0.02313283
988.084	0.0229545
988.246	0.02327247
988.408	0.02359058
988.569	0.02394483
988.731	0.02432703
988.893	0.02485216
989.054	0.02500833
989.216	0.02513094
989.377	0.0251737
989.539	0.02522972
989.701	0.02470706
989.862	0.02422732
990.024	0.02358305
990.185	0.02353099
990.347	0.02346962
990.508	0.02327698
990.669	0.02296541
990.831	0.02323738
990.992	0.02342334
991.154	0.0235138
991.315	0.02358743
991.476	0.02330579
991.638	0.02356126
991.799	0.02350542
991.96	0.02307298
992.121	0.02296424
992.283	0.02272721
992.444	0.02224353
992.605	0.02234587
992.766	0.02198095
992.927	0.02201063
993.088	0.02206065
993.249	0.02205912
993.41	0.02253556
993.572	0.02302321
993.733	0.0230681
993.894	0.02290027
994.055	0.02286129
994.216	0.02292953
994.376	0.02267957
994.537	0.02253858
994.698	0.02227761
994.859	0.02222973
995.02	0.02253097
995.181	0.02266756
995.342	0.02283244
995.503	0.02295422
995.663	0.02322303
995.824	0.02315603
995.985	0.02340587
996.146	0.02368612
996.306	0.02410074
996.467	0.0242536
996.628	0.02406752
996.788	0.02422849
996.949	0.02497019
997.11	0.02510234
997.27	0.02502413
997.431	0.02495019
997.591	0.02530512
997.752	0.02595488
997.912	0.02571602
998.073	0.0257073
998.233	0.02577114
998.394	0.02603476
998.554	0.02597951
998.714	0.02563122
998.875	0.0253571
999.035	0.02506832
999.196	0.02486776
999.356	0.02464865
999.516	0.02444748
999.676	0.0240202
999.837	0.02392202
999.997	0.02377521
1000.157	0.02394773
1000.317	0.02343906
1000.477	0.02353529
1000.638	0.023325
1000.798	0.02361316
1000.958	0.02347813
1001.118	0.02396577
1001.278	0.02360199
1001.438	0.02369864
1001.598	0.02331959
1001.758	0.0236158
1001.918	0.02335008
1002.078	0.0237114
1002.238	0.02345025
1002.398	0.02371812
1002.558	0.02383174
1002.718	0.02396292
1002.878	0.02387765
1003.037	0.02362418
1003.197	0.02338815
1003.357	0.02356275
1003.517	0.02423447
1003.677	0.02420727
1003.836	0.02423225
1003.996	0.02359665
1004.156	0.02415037
1004.315	0.02378948
1004.475	0.02349925
1004.635	0.02239047
1004.794	0.02213246
1004.954	0.022248
1005.114	0.02243751
1005.273	0.02191576
1005.433	0.02187679
1005.592	0.02147482
1005.752	0.02172443
1005.911	0.02213973
1006.071	0.02161583
1006.23	0.02179701
1006.389	0.02236889
1006.549	0.02247232
1006.708	0.0225721
1006.868	0.02184408
1007.027	0.0211816
1007.186	0.02137256
1007.345	0.02160701
1007.505	0.02193401
1007.664	0.02178137
1007.823	0.02221798
1007.982	0.02272664
1008.142	0.02368541
1008.301	0.02428438
1008.46	0.02401395
1008.619	0.02356298
1008.778	0.02396601
1008.937	0.02396398
1009.096	0.0241999
1009.255	0.02411074
1009.414	0.02316416
1009.573	0.02390358
1009.732	0.02425954
1009.891	0.02436596
1010.05	0.02437713
1010.209	0.02483249
1010.368	0.02481103
1010.527	0.025557
1010.686	0.02500014
1010.845	0.02506319
1011.003	0.02487162
1011.162	0.0253445
1011.321	0.02534142
1011.48	0.02458265
1011.638	0.02431648
1011.797	0.02398037
1011.956	0.02309419
1012.115	0.02344618
1012.273	0.02294211
1012.432	0.02304222
1012.59	0.02356406
1012.749	0.0236529
1012.908	0.02441045
1013.066	0.02517611
1013.225	0.02481266
1013.383	0.02531024
1013.542	0.02571715
1013.7	0.02599606
1013.859	0.02641861
1014.017	0.02581662
1014.175	0.02586982
1014.334	0.02584997
1014.492	0.02548537
1014.65	0.02454771
1014.809	0.02495725
1014.967	0.02483518
1015.125	0.0256715
1015.284	0.02539532
1015.442	0.026419
1015.6	0.02733323
1015.758	0.02798344
1015.916	0.02727496
1016.075	0.02742543
1016.233	0.02682546
1016.391	0.02713635
1016.549	0.02632422
1016.707	0.02573952
1016.865	0.02671042
1017.023	0.0267796
1017.181	0.0260887
1017.339	0.0263314
1017.497	0.02680221
1017.655	0.02672134
1017.813	0.02659416
1017.971	0.02528848
1018.129	0.02561331
1018.286	0.02671888
1018.444	0.02631858
1018.602	0.02601831
1018.76	0.02627711
1018.918	0.02615576
1019.075	0.02721967
1019.233	0.02722185
1019.391	0.02772726
1019.549	0.02849063
1019.706	0.02941964
1019.864	0.03002196
1020.022	0.03063425
1020.179	0.03046524
1020.337	0.03104236
1020.494	0.03035874
1020.652	0.03114521
1020.809	0.03043813
1020.967	0.03084867
1021.124	0.03066031
1021.282	0.03093895
1021.439	0.03158633
1021.597	0.03330843
1021.754	0.03253463
1021.911	0.03339862
1022.069	0.03387596
1022.226	0.03414137
1022.384	0.0330685
1022.541	0.03163145
1022.698	0.03008706
1022.855	0.03144654
1023.013	0.03166516
1023.17	0.03169557
1023.327	0.03180124
1023.484	0.03419292
1023.641	0.03500968
1023.798	0.03652531
1023.956	0.03621881
1024.113	0.03670254
1024.27	0.03690345
1024.427	0.03737408
1024.584	0.03679333
1024.741	0.03764152
1024.898	0.03693676
1025.055	0.03724572
1025.212	0.03576505
1025.369	0.03469512
1025.525	0.03363703
1025.682	0.03254512
1025.839	0.0321519
1025.996	0.03265639
1026.153	0.03361191
1026.31	0.03447827
1026.466	0.03509259
1026.623	0.03738862
1026.78	0.0375161
1026.937	0.03792362
1027.093	0.03717862
1027.25	0.03652583
1027.407	0.0366184
1027.563	0.03409833
1027.72	0.03368066
1027.876	0.0346432
1028.033	0.03573898
1028.19	0.03598641
1028.346	0.0352106
1028.503	0.03576771
1028.659	0.04061312
1028.816	0.04101262
1028.972	0.04374935
1029.128	0.043887
1029.285	0.04582213
1029.441	0.04737475
1029.598	0.04740436
1029.754	0.0472967
1029.91	0.04900207
1030.067	0.04648993
1030.223	0.04613641
1030.379	0.04581575
1030.535	0.04558256
1030.691	0.04492636
1030.848	0.04306965
1031.004	0.03866716
1031.16	0.03997189
1031.316	0.0420658
1031.472	0.04483917
1031.628	0.04298984
1031.784	0.04343237
1031.94	0.04566464
1032.096	0.04990324
1032.252	0.04923921
1032.408	0.0522338
1032.564	0.05049228
1032.72	0.05547378
1032.876	0.05655087
1033.032	0.05537332
1033.188	0.05491534
1033.344	0.05629474
1033.5	0.05276859
1033.655	0.05252476
1033.811	0.04976716
1033.967	0.0504135
