Data from 1_mm_pl_0pc_Absorbance__0__16-10-23-424.txt Node

Date: Wed Mar 08 16:10:23 CET 2023
User: Ange
Spectrometer: FLMT08341
Trigger mode: 0
Integration Time (sec): 1.000000E-2
Scans to average: 400
Electric dark correction enabled: true
Nonlinearity correction enabled: false
Boxcar width: 3
XAxis mode: Wavelengths
Number of Pixels in Spectrum: 3648
>>>>>Begin Spectral Data<<<<<
345.271	0.03127992
345.487	0.01884372
345.704	0.01558766
345.921	0.00922273
346.137	-0.00718737
346.354	-0.02617397
346.571	-0.07803215
346.787	-0.26874682
347.004	0.33724285
347.22	0.18892206
347.437	0.34500588
347.653	0.25638419
347.87	-0.03486774
348.086	-0
348.303	-0.8834288
348.519	0.4781468
348.736	0.40087585
348.952	0.40779001
349.169	0.41279346
349.385	0.4317849
349.601	0.42457145
349.818	0.42226521
350.034	0.41914978
350.251	0.4221743
350.467	0.42722432
350.683	0.41542735
350.9	0.41628843
351.116	0.41277808
351.332	0.41235566
351.549	0.42792255
351.765	0.44317216
351.981	0.45191213
352.197	0.47051996
352.414	0.48960257
352.63	0.50461959
352.846	0.51861692
353.062	0.51225544
353.278	0.5043304
353.495	0.52356613
353.711	0.53159194
353.927	0.53588964
354.143	0.53527413
354.359	0.53051547
354.575	0.52359159
354.792	0.53621553
355.008	0.51798899
355.224	0.50239749
355.44	0.49488932
355.656	0.4924363
355.872	0.49928761
356.088	0.53542399
356.304	0.54009214
356.52	0.55139868
356.736	0.56602955
356.952	0.5761983
357.168	0.58318396
357.384	0.59213889
357.6	0.57157394
357.816	0.57946612
358.032	0.5860399
358.248	0.60850677
358.464	0.61169841
358.679	0.62289053
358.895	0.62409374
359.111	0.63502676
359.327	0.62448055
359.543	0.63507925
359.759	0.64281001
359.974	0.64120783
360.19	0.63796997
360.406	0.64358612
360.622	0.64183269
360.838	0.64345957
361.053	0.64720765
361.269	0.64457389
361.485	0.65257078
361.701	0.66059032
361.916	0.65427364
362.132	0.65483782
362.348	0.66266624
362.563	0.66494512
362.779	0.65869372
362.995	0.66322108
363.21	0.67554508
363.426	0.68256382
363.641	0.68657353
363.857	0.69485406
364.073	0.69161723
364.288	0.68740568
364.504	0.70397268
364.719	0.70225856
364.935	0.70159662
365.15	0.70835578
365.366	0.70862316
365.581	0.72233679
365.797	0.73101687
366.012	0.71639611
366.228	0.7105837
366.443	0.72830176
366.658	0.73035011
366.874	0.72798236
367.089	0.73634663
367.305	0.74556141
367.52	0.75836429
367.735	0.7610495
367.951	0.75023991
368.166	0.7603774
368.381	0.78184266
368.597	0.77675057
368.812	0.78574991
369.027	0.78921382
369.243	0.79711712
369.458	0.82395627
369.673	0.82385687
369.888	0.81918567
370.104	0.81188657
370.319	0.81667519
370.534	0.81202547
370.749	0.8148051
370.964	0.81285111
371.179	0.81065617
371.395	0.80685689
371.61	0.82022684
371.825	0.80775561
372.04	0.81682738
372.255	0.80914586
372.47	0.80172981
372.685	0.79915739
372.9	0.79944097
373.115	0.79032692
373.33	0.80223908
373.545	0.80058858
373.76	0.81486429
373.975	0.81580406
374.19	0.81590677
374.405	0.82452073
374.62	0.84560008
374.835	0.86112411
375.05	0.86598863
375.265	0.86834893
375.48	0.87328472
375.695	0.89837046
375.91	0.89234142
376.125	0.87304938
376.339	0.85244907
376.554	0.85773719
376.769	0.85497984
376.984	0.8552484
377.199	0.85687876
377.414	0.86011018
377.628	0.8789426
377.843	0.89213664
378.058	0.89616179
378.273	0.91159962
378.487	0.92050832
378.702	0.92425094
378.917	0.92919291
379.131	0.91940184
379.346	0.91047297
379.561	0.90570842
379.775	0.89853668
379.99	0.89081217
380.205	0.88110738
380.419	0.87185544
380.634	0.86398038
380.848	0.87879214
381.063	0.88320054
381.278	0.89364899
381.492	0.89088964
381.707	0.90446553
381.921	0.91045688
382.136	0.93410479
382.35	0.92729461
382.565	0.92241351
382.779	0.926426
382.994	0.93547287
383.208	0.92507113
383.422	0.94210835
383.637	0.93862014
383.851	0.95232334
384.066	0.96499842
384.28	0.96909272
384.494	0.97601023
384.709	0.98779781
384.923	0.98762435
385.137	0.98247663
385.352	0.97922438
385.566	0.98718806
385.78	0.98338125
385.995	0.98032548
386.209	0.9736284
386.423	0.9798976
386.637	0.98844094
386.852	0.98255138
387.066	0.98038548
387.28	0.97572343
387.494	0.98813205
387.708	0.99663846
387.923	0.99713862
388.137	1.00593531
388.351	1.01951599
388.565	1.02882721
388.779	1.04049846
388.993	1.05772125
389.207	1.06363674
389.421	1.06837874
389.635	1.06059697
389.85	1.0599987
390.064	1.05919624
390.278	1.06413934
390.492	1.06171931
390.706	1.06701126
390.92	1.07035944
391.134	1.08788907
391.348	1.10876639
391.561	1.10526582
391.775	1.10467716
391.989	1.09364124
392.203	1.10031156
392.417	1.10626255
392.631	1.11639488
392.845	1.10397425
393.059	1.12092714
393.273	1.11901657
393.486	1.11437978
393.7	1.1039774
393.914	1.11125802
394.128	1.10338463
394.342	1.1047281
394.555	1.08843422
394.769	1.09240153
394.983	1.10695431
395.197	1.12010812
395.41	1.11837544
395.624	1.12684858
395.838	1.13050733
396.051	1.16283787
396.265	1.15818918
396.479	1.164235
396.692	1.16474693
396.906	1.16161947
397.12	1.15744555
397.333	1.16721662
397.547	1.15360016
397.76	1.17148654
397.974	1.17245301
398.187	1.17842489
398.401	1.19038867
398.614	1.19872465
398.828	1.19985832
399.041	1.20910437
399.255	1.20739864
399.468	1.20906204
399.682	1.21356402
399.895	1.22027993
400.109	1.21737913
400.322	1.21550086
400.536	1.2008069
400.749	1.21492697
400.962	1.21909636
401.176	1.21534653
401.389	1.21135546
401.602	1.20237506
401.816	1.21329085
402.029	1.23018205
402.242	1.22241301
402.456	1.22382075
402.669	1.21988883
402.882	1.20846966
403.095	1.23183598
403.309	1.23081328
403.522	1.23586102
403.735	1.2363381
403.948	1.2361581
404.161	1.26771151
404.375	1.28045638
404.588	1.27872329
404.801	1.28146764
405.014	1.27601254
405.227	1.29482512
405.44	1.30762742
405.653	1.3047228
405.866	1.29949743
406.079	1.29773961
406.293	1.29689366
406.506	1.30183665
406.719	1.29511315
406.932	1.29418632
407.145	1.28241855
407.358	1.30736996
407.571	1.30258174
407.784	1.30935276
407.996	1.31725598
408.209	1.30872897
408.422	1.30232901
408.635	1.31071222
408.848	1.30727184
409.061	1.29965165
409.274	1.30032909
409.487	1.29799612
409.7	1.30690433
409.912	1.31627889
410.125	1.31888465
410.338	1.31951034
410.551	1.32899826
410.764	1.33260662
410.976	1.33717401
411.189	1.34012667
411.402	1.33270785
411.615	1.33975731
411.827	1.34276603
412.04	1.34828349
412.253	1.34793851
412.465	1.34403474
412.678	1.33928967
412.891	1.35339415
413.103	1.33046691
413.316	1.32843959
413.529	1.33936659
413.741	1.34743554
413.954	1.35845771
414.166	1.36643402
414.379	1.36434662
414.591	1.38677279
414.804	1.38175417
415.016	1.37616518
415.229	1.36966503
415.441	1.35982554
415.654	1.36808432
415.866	1.36960082
416.079	1.37351534
416.291	1.3758973
416.504	1.39094911
416.716	1.39824517
416.928	1.40631315
417.141	1.39806127
417.353	1.40411766
417.566	1.39043321
417.778	1.39617892
417.99	1.37552029
418.203	1.36585205
418.415	1.36501263
418.627	1.37262314
418.839	1.3719503
419.052	1.39222941
419.264	1.39356085
419.476	1.40500292
419.688	1.41734738
419.901	1.42046226
420.113	1.41496854
420.325	1.41289219
420.537	1.39786944
420.749	1.4033935
420.961	1.40616242
421.174	1.40034841
421.386	1.39583386
421.598	1.39558871
421.81	1.39318988
422.022	1.39472143
422.234	1.39515516
422.446	1.38980656
422.658	1.39247585
422.87	1.39665495
423.082	1.39699411
423.294	1.39782591
423.506	1.40380065
423.718	1.39945697
423.93	1.39475567
424.142	1.38910342
424.354	1.38515095
424.566	1.38387835
424.778	1.38480651
424.99	1.38079667
425.202	1.37655953
425.414	1.38143481
425.625	1.39070606
425.837	1.38412411
426.049	1.39050101
426.261	1.38592933
426.473	1.37873723
426.684	1.38245449
426.896	1.38806728
427.108	1.3788224
427.32	1.38881541
427.531	1.38054369
427.743	1.3805221
427.955	1.39463179
428.167	1.3870662
428.378	1.38119504
428.59	1.38240011
428.802	1.37674169
429.013	1.3749577
429.225	1.3710792
429.436	1.3610947
429.648	1.36569466
429.86	1.3664161
430.071	1.36668563
430.283	1.36680397
430.494	1.3627277
430.706	1.36366675
430.917	1.36004498
431.129	1.35713668
431.34	1.35038811
431.552	1.35099452
431.763	1.34562814
431.975	1.35154605
432.186	1.34333633
432.398	1.34133348
432.609	1.32869886
432.821	1.32911796
433.032	1.32321469
433.243	1.3195965
433.455	1.31436102
433.666	1.31642595
433.877	1.32010557
434.089	1.31745199
434.3	1.31016052
434.511	1.30008614
434.723	1.29662554
434.934	1.28757566
435.145	1.27640128
435.356	1.26404894
435.568	1.26305931
435.779	1.25709787
435.99	1.25165843
436.201	1.2462209
436.412	1.24200076
436.624	1.24562473
436.835	1.24735023
437.046	1.2490324
437.257	1.24718077
437.468	1.25393974
437.679	1.25530347
437.89	1.25438461
438.101	1.2514979
438.312	1.24675715
438.523	1.23997143
438.734	1.23593378
438.945	1.22878272
439.156	1.21866293
439.367	1.21637587
439.578	1.21365997
439.789	1.20495922
440	1.20148865
440.211	1.19502011
440.422	1.19052973
440.633	1.19122752
440.844	1.18181945
441.055	1.17415135
441.266	1.17412685
441.477	1.16589445
441.687	1.16236602
441.898	1.157371
442.109	1.14770499
442.32	1.14356533
442.531	1.13453496
442.741	1.12155877
442.952	1.11599229
443.163	1.11158163
443.374	1.10372716
443.584	1.09819209
443.795	1.09358292
444.006	1.0903055
444.216	1.08705358
444.427	1.07964275
444.638	1.07179634
444.848	1.06555739
445.059	1.0600838
445.27	1.05333788
445.48	1.04557837
445.691	1.04086376
445.901	1.03711993
446.112	1.03212027
446.323	1.02483696
446.533	1.01842674
446.744	1.01067742
446.954	1.0039346
447.165	0.99686085
447.375	0.99167374
447.586	0.98685254
447.796	0.98256426
448.006	0.97674029
448.217	0.97310271
448.427	0.96794148
448.638	0.96120907
448.848	0.95249821
449.058	0.94468802
449.269	0.93826713
449.479	0.93184336
449.689	0.92458007
449.9	0.91862802
450.11	0.91247063
450.32	0.9089846
450.531	0.90193847
450.741	0.89507407
450.951	0.8890738
451.161	0.8823717
451.372	0.87623956
451.582	0.87433751
451.792	0.866362
452.002	0.86072688
452.212	0.85367831
452.422	0.84753317
452.633	0.84109477
452.843	0.83600577
453.053	0.82531968
453.263	0.82006316
453.473	0.81355979
453.683	0.80864281
453.893	0.80177775
454.103	0.7971738
454.313	0.79039793
454.523	0.78519215
454.733	0.77911676
454.943	0.77445898
455.153	0.7692586
455.363	0.76372047
455.573	0.75808307
455.783	0.75299921
455.993	0.74736859
456.203	0.74257996
456.413	0.73655408
456.623	0.73010603
456.833	0.72591895
457.042	0.71962451
457.252	0.7138653
457.462	0.70822396
457.672	0.70234397
457.882	0.69704932
458.091	0.69155472
458.301	0.68500716
458.511	0.67961773
458.721	0.67406998
458.931	0.66886232
459.14	0.66384573
459.35	0.65942464
459.56	0.65504288
459.769	0.65076443
459.979	0.64528326
460.189	0.6404496
460.398	0.63511334
460.608	0.63033486
460.817	0.62501442
461.027	0.61993832
461.237	0.61474244
461.446	0.61021608
461.656	0.6061643
461.865	0.60160316
462.075	0.59685416
462.284	0.59251712
462.494	0.58776324
462.703	0.58268548
462.913	0.57857534
463.122	0.5736326
463.332	0.56916286
463.541	0.56517399
463.751	0.5606097
463.96	0.5564704
464.169	0.55257542
464.379	0.54867424
464.588	0.5445357
464.797	0.54067549
465.007	0.53630884
465.216	0.53216699
465.425	0.52839007
465.635	0.5246219
465.844	0.52046526
466.053	0.51635833
466.263	0.51239817
466.472	0.5084701
466.681	0.50471616
466.89	0.50069537
467.099	0.49685678
467.309	0.49331984
467.518	0.49009137
467.727	0.48655287
467.936	0.48309276
468.145	0.47969368
468.354	0.47650422
468.563	0.47309014
468.772	0.46972859
468.982	0.46637836
469.191	0.463329
469.4	0.46017441
469.609	0.45704029
469.818	0.45411181
470.027	0.45088298
470.236	0.44746759
470.445	0.44441747
470.654	0.44109635
470.863	0.43764221
471.072	0.43463578
471.28	0.43118312
471.489	0.4285768
471.698	0.42567821
471.907	0.42265766
472.116	0.42007616
472.325	0.41748705
472.534	0.41493932
472.743	0.41218791
472.951	0.40964749
473.16	0.40737511
473.369	0.40492152
473.578	0.40246053
473.786	0.40029262
473.995	0.39763718
474.204	0.39562869
474.413	0.39319847
474.621	0.3907252
474.83	0.38878645
475.039	0.38665685
475.247	0.38447537
475.456	0.38261369
475.665	0.38046631
475.873	0.37841804
476.082	0.37626734
476.291	0.37408225
476.499	0.37213745
476.708	0.36992952
476.916	0.36804314
477.125	0.36614909
477.333	0.36422661
477.542	0.36260948
477.75	0.36089717
477.959	0.35935871
478.167	0.35784914
478.376	0.35601889
478.584	0.35435471
478.793	0.35282836
479.001	0.35123879
479.209	0.34969018
479.418	0.34811084
479.626	0.34663066
479.834	0.34527003
480.043	0.34402601
480.251	0.34260484
480.459	0.34122773
480.668	0.3399214
480.876	0.3385229
481.084	0.33726485
481.293	0.33593845
481.501	0.33461521
481.709	0.33347909
481.917	0.33240313
482.125	0.33133181
482.334	0.33024455
482.542	0.32912396
482.75	0.32808801
482.958	0.32724992
483.166	0.3262172
483.374	0.32511785
483.583	0.32426353
483.791	0.32340859
483.999	0.32256214
484.207	0.32175227
484.415	0.32075341
484.623	0.31997001
484.831	0.31921833
485.039	0.3184331
485.247	0.31779529
485.455	0.31720028
485.663	0.31650668
485.871	0.3159601
486.079	0.31523602
486.287	0.31474648
486.495	0.31406485
486.702	0.31335088
486.91	0.31281654
487.118	0.31238763
487.326	0.31181697
487.534	0.31145956
487.742	0.3110299
487.95	0.3107316
488.157	0.31045644
488.365	0.31009727
488.573	0.30973976
488.781	0.30950575
488.988	0.30934794
489.196	0.30908612
489.404	0.30889083
489.612	0.30865587
489.819	0.30846378
490.027	0.30825179
490.235	0.30811847
490.442	0.30802805
490.65	0.30800001
490.857	0.30801078
491.065	0.30802704
491.273	0.30799428
491.48	0.3081561
491.688	0.30819105
491.895	0.30818165
492.103	0.30818469
492.31	0.30819934
492.518	0.30835682
492.725	0.3086376
492.933	0.30879418
493.14	0.30897138
493.348	0.30913343
493.555	0.30931606
493.763	0.30958864
493.97	0.30973837
494.177	0.30992937
494.385	0.31017275
494.592	0.31046561
494.8	0.31078422
495.007	0.31112238
495.214	0.31150588
495.422	0.31185114
495.629	0.31209482
495.836	0.31238785
496.043	0.31279948
496.251	0.31324744
496.458	0.3137422
496.665	0.31416801
496.872	0.31461121
497.08	0.31514966
497.287	0.31561945
497.494	0.31614466
497.701	0.31670821
497.908	0.31732809
498.115	0.31784118
498.322	0.31844058
498.53	0.31906596
498.737	0.31969439
498.944	0.32028256
499.151	0.32083491
499.358	0.32144108
499.565	0.32211856
499.772	0.32280714
499.979	0.32345365
500.186	0.32429421
500.393	0.32506788
500.6	0.32590508
500.807	0.32660645
501.014	0.32732723
501.221	0.32814203
501.427	0.32896901
501.634	0.32975341
501.841	0.33057116
502.048	0.33137744
502.255	0.33220243
502.462	0.33327263
502.669	0.33433722
502.875	0.33529999
503.082	0.33616567
503.289	0.33706734
503.496	0.33803739
503.702	0.33900003
503.909	0.33986777
504.116	0.34080935
504.323	0.34187219
504.529	0.34292919
504.736	0.34404333
504.943	0.34499442
505.149	0.34618819
505.356	0.34738018
505.563	0.34846157
505.769	0.34954394
505.976	0.35070623
506.182	0.35185901
506.389	0.35315908
506.595	0.35427606
506.802	0.35533711
507.008	0.35646562
507.215	0.3576198
507.421	0.35887782
507.628	0.36012296
507.834	0.36134708
508.041	0.36271838
508.247	0.36409897
508.454	0.36546274
508.66	0.36667491
508.866	0.36798675
509.073	0.36930729
509.279	0.37058937
509.486	0.37180749
509.692	0.37305976
509.898	0.37442112
510.105	0.37590294
510.311	0.37722446
510.517	0.37864216
510.723	0.38009441
510.93	0.38145785
511.136	0.38291164
511.342	0.38435285
511.548	0.38587616
511.754	0.38747527
511.961	0.38897282
512.167	0.39054301
512.373	0.39211347
512.579	0.39368467
512.785	0.39513811
512.991	0.3965657
513.197	0.39799878
513.404	0.39956007
513.61	0.40103508
513.816	0.40247125
514.022	0.40398957
514.228	0.40557038
514.434	0.40715551
514.64	0.40875154
514.846	0.41036518
515.052	0.41201258
515.258	0.41378043
515.464	0.41550643
515.669	0.41724641
515.875	0.41901365
516.081	0.42070141
516.287	0.42242811
516.493	0.42416305
516.699	0.42575034
516.905	0.42737958
517.111	0.42902013
517.316	0.43073372
517.522	0.43261838
517.728	0.4344551
517.934	0.43629589
518.139	0.43815789
518.345	0.43992234
518.551	0.44180459
518.757	0.44363541
518.962	0.44538977
519.168	0.44718701
519.374	0.44894666
519.579	0.45096764
519.785	0.45303805
519.991	0.45497115
520.196	0.45687762
520.402	0.45873664
520.607	0.46065313
520.813	0.4626162
521.018	0.46438115
521.224	0.46610903
521.429	0.46804357
521.635	0.46996307
521.84	0.47182616
522.046	0.47378067
522.251	0.47580407
522.457	0.47785089
522.662	0.4800565
522.868	0.48212074
523.073	0.48408217
523.279	0.48613028
523.484	0.48796296
523.689	0.48997009
523.895	0.49212038
524.1	0.49406922
524.305	0.4961144
524.511	0.49829276
524.716	0.50037384
524.921	0.50260128
525.126	0.5047106
525.332	0.50684727
525.537	0.50900128
525.742	0.51130422
525.947	0.5135837
526.153	0.5158228
526.358	0.51812822
526.563	0.52030957
526.768	0.52247743
526.973	0.52472158
527.178	0.52682451
527.383	0.52892052
527.588	0.53116849
527.794	0.53329323
527.999	0.53559569
528.204	0.53778599
528.409	0.53995489
528.614	0.54217885
528.819	0.54448016
529.024	0.54670778
529.229	0.54889611
529.434	0.55123179
529.639	0.55356758
529.843	0.55598122
530.048	0.55832647
530.253	0.56066839
530.458	0.56309519
530.663	0.56551705
530.868	0.56790675
531.073	0.57011776
531.278	0.57228477
531.482	0.57455561
531.687	0.57685986
531.892	0.57913204
532.097	0.58144395
532.302	0.58376169
532.506	0.58614028
532.711	0.58858327
532.916	0.59089928
533.12	0.59326222
533.325	0.5955962
533.53	0.59820298
533.734	0.60058884
533.939	0.60315613
534.144	0.60573084
534.348	0.60839508
534.553	0.61093604
534.757	0.61342995
534.962	0.61578754
535.167	0.61838699
535.371	0.62086188
535.576	0.62344097
535.78	0.62593469
535.985	0.6285153
536.189	0.63112339
536.394	0.63369622
536.598	0.63611986
536.803	0.63873417
537.007	0.64124881
537.211	0.64393258
537.416	0.64652319
537.62	0.64916299
537.825	0.65169158
538.029	0.65457782
538.233	0.65714055
538.438	0.65972069
538.642	0.66200592
538.846	0.66469978
539.05	0.66723398
539.255	0.6698219
539.459	0.67232035
539.663	0.67492351
539.867	0.67761021
540.072	0.68049366
540.276	0.68296675
540.48	0.68585927
540.684	0.68855905
540.888	0.69139793
541.092	0.6941299
541.297	0.6967705
541.501	0.69943031
541.705	0.70225975
541.909	0.70478112
542.113	0.70743877
542.317	0.71011291
542.521	0.7128119
542.725	0.71565283
542.929	0.71839766
543.133	0.72120549
543.337	0.72418402
543.541	0.72703336
543.745	0.72949956
543.949	0.73227496
544.153	0.73490248
544.357	0.73749575
544.56	0.7401951
544.764	0.74286923
544.968	0.745505
545.172	0.74823874
545.376	0.75110341
545.58	0.75395044
545.783	0.75706576
545.987	0.75981443
546.191	0.76248404
546.395	0.76538938
546.598	0.76840156
546.802	0.77122915
547.006	0.77406837
547.21	0.77638332
547.413	0.77919892
547.617	0.78199502
547.821	0.78475599
548.024	0.78755294
548.228	0.79019285
548.431	0.79298058
548.635	0.79602958
548.839	0.79887404
549.042	0.80183906
549.246	0.80460781
549.449	0.80743345
549.653	0.81025933
549.856	0.81294258
550.06	0.81568511
550.263	0.81845285
550.467	0.82122786
550.67	0.82411996
550.874	0.82686379
551.077	0.82988791
551.28	0.83304769
551.484	0.83594413
551.687	0.83879191
551.891	0.84166966
552.094	0.84439446
552.297	0.84733807
552.501	0.8501613
552.704	0.85289489
552.907	0.85554494
553.11	0.85811442
553.314	0.86070753
553.517	0.86311722
553.72	0.86583325
553.923	0.86838838
554.127	0.87118361
554.33	0.87377562
554.533	0.876905
554.736	0.87967782
554.939	0.88295503
555.142	0.88606339
555.345	0.88928723
555.549	0.89237038
555.752	0.89553021
555.955	0.8983933
556.158	0.90161231
556.361	0.90436411
556.564	0.90695932
556.767	0.90957987
556.97	0.91225708
557.173	0.91509122
557.376	0.91796037
557.579	0.92044644
557.782	0.92324777
557.984	0.92629825
558.187	0.92924346
558.39	0.93204365
558.593	0.93505569
558.796	0.93762431
558.999	0.94034962
559.202	0.94301005
559.404	0.94535313
559.607	0.94808007
559.81	0.95054939
560.013	0.95303322
560.216	0.9557767
560.418	0.95877754
560.621	0.96176829
560.824	0.96495655
561.026	0.96769865
561.229	0.97068912
561.432	0.97357516
561.634	0.97649289
561.837	0.97907013
562.04	0.98193764
562.242	0.98449165
562.445	0.98722691
562.647	0.9899994
562.85	0.99261466
563.053	0.99519115
563.255	0.99801872
563.458	1.00053184
563.66	1.00350331
563.863	1.00658975
564.065	1.00969229
564.268	1.01256711
564.47	1.0154412
564.672	1.01811924
564.875	1.02128903
565.077	1.02393462
565.28	1.02632668
565.482	1.02890392
565.684	1.0315986
565.887	1.03457334
566.089	1.03763384
566.291	1.04005875
566.494	1.04269661
566.696	1.04530406
566.898	1.04817056
567.1	1.05102544
567.303	1.05367611
567.505	1.05623927
567.707	1.05863077
567.909	1.06134269
568.111	1.06405003
568.314	1.06672331
568.516	1.06933691
568.718	1.07188668
568.92	1.07443937
569.122	1.07738737
569.324	1.08008605
569.526	1.08254458
569.728	1.08521659
569.93	1.08780947
570.132	1.09030168
570.334	1.09298595
570.536	1.09545042
570.738	1.09782762
570.94	1.10038602
571.142	1.10306084
571.344	1.10536023
571.546	1.10789791
571.748	1.11083096
571.95	1.11335841
572.152	1.11593631
572.354	1.11861101
572.555	1.1211786
572.757	1.12417296
572.959	1.12678883
573.161	1.12860502
573.363	1.13147908
573.564	1.13454386
573.766	1.1369843
573.968	1.13929819
574.17	1.14112694
574.371	1.14391435
574.573	1.14658992
574.775	1.1485765
574.976	1.15063352
575.178	1.15283817
575.38	1.15491326
575.581	1.15742111
575.783	1.15947072
575.985	1.16192126
576.186	1.16459526
576.388	1.16691424
576.589	1.16918621
576.791	1.17165527
576.992	1.17422189
577.194	1.17674893
577.395	1.17877441
577.597	1.18083805
577.798	1.18296565
578	1.18527573
578.201	1.18723239
578.402	1.18938029
578.604	1.19124787
578.805	1.19378293
579.007	1.19614816
579.208	1.19839401
579.409	1.20079648
579.611	1.20297826
579.812	1.20545795
580.013	1.20732449
580.215	1.20875759
580.416	1.21065066
580.617	1.2124816
580.818	1.21470711
581.019	1.21692692
581.221	1.21887193
581.422	1.2210859
581.623	1.22375477
581.824	1.22543858
582.025	1.22761593
582.226	1.22961735
582.428	1.23180635
582.629	1.23392464
582.83	1.23564892
583.031	1.23746833
583.232	1.24034648
583.433	1.24269241
583.634	1.24434202
583.835	1.24610071
584.036	1.24777023
584.237	1.24997168
584.438	1.25194802
584.639	1.2530226
584.84	1.25474077
585.041	1.2564349
585.242	1.25814223
585.442	1.25978137
585.643	1.26194623
585.844	1.26345133
586.045	1.26587325
586.246	1.26718328
586.447	1.26906517
586.647	1.27079321
586.848	1.27251468
587.049	1.27376098
587.25	1.27557593
587.45	1.27663319
587.651	1.278411
587.852	1.28018529
588.053	1.28202706
588.253	1.28305339
588.454	1.28487308
588.655	1.28605838
588.855	1.28727538
589.056	1.28866047
589.256	1.29010246
589.457	1.29119732
589.658	1.29332074
589.858	1.29452345
590.059	1.29618509
590.259	1.29807318
590.46	1.29933232
590.66	1.30057695
590.861	1.30197021
591.061	1.3033028
591.262	1.30506079
591.462	1.30679685
591.662	1.30834415
591.863	1.30995015
592.063	1.31182357
592.264	1.31316497
592.464	1.31464039
592.664	1.31601527
592.865	1.31714065
593.065	1.31774271
593.265	1.31932956
593.465	1.31995088
593.666	1.32137525
593.866	1.32253771
594.066	1.32337174
594.266	1.32462002
594.467	1.32527639
594.667	1.32616514
594.867	1.32701023
595.067	1.32782003
595.267	1.32864272
595.467	1.32966756
595.668	1.33044806
595.868	1.33218825
596.068	1.33346084
596.268	1.3350155
596.468	1.33622893
596.668	1.33773333
596.868	1.33833061
597.068	1.33963393
597.268	1.34074814
597.468	1.34146076
597.668	1.34212002
597.868	1.34278823
598.068	1.34308325
598.268	1.34449682
598.467	1.34514021
598.667	1.3461739
598.867	1.34673378
599.067	1.34804407
599.267	1.34905622
599.467	1.34991839
599.667	1.34997441
599.866	1.35098321
600.066	1.35159246
600.266	1.3519673
600.466	1.35243655
600.665	1.35284041
600.865	1.35312234
601.065	1.3546243
601.264	1.35484872
601.464	1.35554292
601.664	1.35708064
601.863	1.35785617
602.063	1.3589536
602.263	1.35904511
602.462	1.35961749
602.662	1.36043871
602.861	1.36034275
603.061	1.36053278
603.26	1.36093535
603.46	1.36082263
603.659	1.36194256
603.859	1.36236819
604.058	1.36265036
604.258	1.3634355
604.457	1.36465883
604.657	1.36456443
604.856	1.36514218
605.056	1.36556101
605.255	1.36548775
605.454	1.36578862
605.654	1.36621108
605.853	1.3658146
606.052	1.36588021
606.252	1.36603554
606.451	1.36639585
606.65	1.36727419
606.849	1.36698921
607.049	1.3668106
607.248	1.36649413
607.447	1.36691042
607.646	1.36745928
607.845	1.36728247
608.045	1.36659068
608.244	1.36706342
608.443	1.36718767
608.642	1.36769524
608.841	1.36776618
609.04	1.36723171
609.239	1.36789716
609.438	1.36824077
609.637	1.36808377
609.836	1.3683674
610.035	1.36809491
610.234	1.36833103
610.433	1.36866139
610.632	1.36839051
610.831	1.36809914
611.03	1.36810417
611.229	1.3682108
611.428	1.36838815
611.627	1.36849024
611.826	1.36810623
612.025	1.36791205
612.224	1.36763488
612.422	1.36718451
612.621	1.36630664
612.82	1.36577101
613.019	1.36488037
613.218	1.36462878
613.416	1.36396458
613.615	1.363636
613.814	1.3629726
614.012	1.36278144
614.211	1.36215536
614.41	1.36155101
614.608	1.36116768
614.807	1.36080046
615.006	1.36032476
615.204	1.35981652
615.403	1.35957878
615.602	1.35932781
615.8	1.35856448
615.999	1.35735363
616.197	1.35669401
616.396	1.3560786
616.594	1.3555826
616.793	1.35480261
616.991	1.35391437
617.19	1.35354308
617.388	1.35334289
617.586	1.35255676
617.785	1.35182658
617.983	1.35160843
618.182	1.35075513
618.38	1.34984202
618.578	1.3490854
618.777	1.34855144
618.975	1.3481392
619.173	1.34736882
619.372	1.34660776
619.57	1.34588618
619.768	1.34565132
619.966	1.34475912
620.165	1.34299321
620.363	1.3421123
620.561	1.34118062
620.759	1.33996471
620.957	1.33918632
621.155	1.33775184
621.354	1.33708334
621.552	1.33739334
621.75	1.3359915
621.948	1.33538389
622.146	1.33442206
622.344	1.33282753
622.542	1.33207831
622.74	1.33037188
622.938	1.32888408
623.136	1.32822645
623.334	1.32731366
623.532	1.32610643
623.73	1.32575203
623.928	1.32481037
624.126	1.32437431
624.324	1.32365748
624.522	1.32212676
624.719	1.32024464
624.917	1.31924757
625.115	1.31740151
625.313	1.31623717
625.511	1.31494158
625.708	1.31282653
625.906	1.31170529
626.104	1.31051769
626.302	1.30913518
626.499	1.30796454
626.697	1.30647852
626.895	1.30519164
627.093	1.30466778
627.29	1.30358136
627.488	1.30230813
627.686	1.30120513
627.883	1.30016676
628.081	1.2984496
628.278	1.29703875
628.476	1.29532519
628.673	1.2938175
628.871	1.29249497
629.068	1.29099845
629.266	1.28938423
629.463	1.28850904
629.661	1.28683
629.858	1.28546706
630.056	1.28387309
630.253	1.28283558
630.451	1.28125766
630.648	1.27968473
630.845	1.27784807
631.043	1.27632477
631.24	1.27492312
631.438	1.27333437
631.635	1.27135015
631.832	1.26971793
632.029	1.26862793
632.227	1.26697745
632.424	1.2655987
632.621	1.2636143
632.818	1.26225029
633.016	1.26065487
633.213	1.25897729
633.41	1.25669732
633.607	1.25491714
633.804	1.25309143
634.001	1.25135651
634.199	1.2490798
634.396	1.24731586
634.593	1.24545991
634.79	1.24410372
634.987	1.24223353
635.184	1.24040761
635.381	1.23866217
635.578	1.23721332
635.775	1.23560457
635.972	1.23402365
636.169	1.23222439
636.366	1.23091152
636.563	1.22919969
636.76	1.22759564
636.957	1.22585872
637.153	1.22349936
637.35	1.22180433
637.547	1.21971504
637.744	1.21747237
637.941	1.21573774
638.138	1.21323991
638.334	1.21130843
638.531	1.2099094
638.728	1.2076706
638.925	1.20604153
639.121	1.20427828
639.318	1.20202806
639.515	1.20035494
639.711	1.19863472
639.908	1.19593491
640.105	1.19401452
640.301	1.19171133
640.498	1.18948762
640.695	1.18776757
640.891	1.18588334
641.088	1.18343608
641.284	1.18170751
641.481	1.17986189
641.677	1.17783755
641.874	1.17565574
642.07	1.17335558
642.267	1.17166256
642.463	1.1693958
642.66	1.16776781
642.856	1.16536658
643.053	1.16284873
643.249	1.16061462
643.445	1.15839384
643.642	1.15564164
643.838	1.15375186
644.034	1.15117474
644.231	1.14894943
644.427	1.14675457
644.623	1.14456718
644.82	1.14227817
645.016	1.13995203
645.212	1.13745358
645.408	1.13504131
645.604	1.13304349
645.801	1.13122229
645.997	1.12891771
646.193	1.12662263
646.389	1.12445952
646.585	1.1224121
646.781	1.12007721
646.977	1.11795432
647.173	1.11547129
647.37	1.11342214
647.566	1.11101873
647.762	1.10860855
647.958	1.10651336
648.154	1.10430436
648.35	1.10187903
648.546	1.09935515
648.742	1.09693125
648.937	1.09489438
649.133	1.09297919
649.329	1.09047191
649.525	1.08830824
649.721	1.08578298
649.917	1.08384179
650.113	1.08146368
650.309	1.07917015
650.504	1.07640512
650.7	1.07390229
650.896	1.07127853
651.092	1.06886929
651.287	1.06627177
651.483	1.06388588
651.679	1.06146182
651.875	1.05912008
652.07	1.05679628
652.266	1.05459814
652.462	1.05226376
652.657	1.04955366
652.853	1.04682513
653.048	1.04419945
653.244	1.0418387
653.44	1.03928856
653.635	1.03648572
653.831	1.03378962
654.026	1.03181585
654.222	1.02953369
654.417	1.02722641
654.613	1.02454748
654.808	1.02176556
655.004	1.01951171
655.199	1.01707243
655.394	1.01436628
655.59	1.01192794
655.785	1.00925102
655.98	1.00683614
656.176	1.00425864
656.371	1.0017385
656.566	0.99934581
656.762	0.99682337
656.957	0.99419605
657.152	0.99172841
657.348	0.98923544
657.543	0.98710695
657.738	0.98453878
657.933	0.98209403
658.128	0.97945983
658.324	0.97692021
658.519	0.97456165
658.714	0.97205388
658.909	0.96937181
659.104	0.96691021
659.299	0.96430373
659.494	0.96174621
659.689	0.95935512
659.884	0.95645502
660.079	0.9538705
660.274	0.95140594
660.469	0.9490183
660.664	0.9467361
660.859	0.9441979
661.054	0.94159369
661.249	0.93922895
661.444	0.93665136
661.639	0.93391361
661.834	0.93120224
662.029	0.92826509
662.224	0.92554732
662.418	0.92285891
662.613	0.9202474
662.808	0.91744911
663.003	0.91487174
663.198	0.91207774
663.392	0.9092909
663.587	0.90695801
663.782	0.90438628
663.977	0.90174015
664.171	0.89936911
664.366	0.89684731
664.561	0.89432668
664.755	0.89178783
664.95	0.88910015
665.144	0.88650951
665.339	0.88413794
665.534	0.88150638
665.728	0.87895156
665.923	0.87645789
666.117	0.87399798
666.312	0.87144751
666.506	0.8688281
666.701	0.86598534
666.895	0.86337772
667.09	0.8606372
667.284	0.85790788
667.479	0.85514544
667.673	0.85239452
667.867	0.84973591
668.062	0.84706788
668.256	0.84450178
668.45	0.84206809
668.645	0.83939039
668.839	0.8369923
669.033	0.83447236
669.228	0.83180618
669.422	0.82926561
669.616	0.82650087
669.81	0.82393709
670.004	0.82139172
670.199	0.81887926
670.393	0.81631999
670.587	0.81384313
670.781	0.8114645
670.975	0.80891035
671.169	0.80605134
671.363	0.80341909
671.558	0.80054418
671.752	0.79784952
671.946	0.79535309
672.14	0.79257311
672.334	0.78999506
672.528	0.78763419
672.722	0.78488585
672.916	0.78235106
673.11	0.77964022
673.304	0.77712982
673.497	0.77442325
673.691	0.77198444
673.885	0.7691797
674.079	0.76681188
674.273	0.76433651
674.467	0.76200077
674.661	0.7593169
674.854	0.75671396
675.048	0.75396224
675.242	0.75152686
675.436	0.74884818
675.629	0.74605868
675.823	0.74329787
676.017	0.74077027
676.211	0.73812443
676.404	0.73550918
676.598	0.73288882
676.792	0.73034162
676.985	0.72779606
677.179	0.7251071
677.372	0.72237275
677.566	0.71991837
677.76	0.71749297
677.953	0.71480953
678.147	0.71224238
678.34	0.70966863
678.534	0.70715774
678.727	0.70457186
678.921	0.70206577
679.114	0.69930549
679.307	0.69684515
679.501	0.6943064
679.694	0.69188519
679.888	0.68933761
680.081	0.68702586
680.274	0.68435914
680.468	0.68201122
680.661	0.67959122
680.854	0.67717414
681.048	0.67480758
681.241	0.67245484
681.434	0.66995484
681.627	0.66755794
681.821	0.66507989
682.014	0.66253519
682.207	0.65993087
682.4	0.6573562
682.593	0.65483422
682.786	0.65243874
682.98	0.65012636
683.173	0.6478422
683.366	0.64560347
683.559	0.64348516
683.752	0.64120141
683.945	0.63885776
684.138	0.63645066
684.331	0.63400756
684.524	0.63164138
684.717	0.62914208
684.91	0.62668288
685.103	0.6242783
685.296	0.62183548
685.489	0.61936492
685.682	0.61677186
685.874	0.61440282
686.067	0.61202532
686.26	0.60944123
686.453	0.60697475
686.646	0.60449634
686.839	0.60218976
687.031	0.59985524
687.224	0.59727319
687.417	0.59493094
687.61	0.59271683
687.802	0.59048025
687.995	0.588273
688.188	0.58608591
688.38	0.58389204
688.573	0.58174211
688.766	0.57953762
688.958	0.57729101
689.151	0.57483983
689.343	0.57255936
689.536	0.57019349
689.729	0.56784901
689.921	0.56542815
690.114	0.56291903
690.306	0.56045188
690.499	0.55805279
690.691	0.55570629
690.884	0.55334219
691.076	0.5510608
691.268	0.54879163
691.461	0.54647486
691.653	0.54437236
691.846	0.54229499
692.038	0.54000524
692.23	0.53765155
692.423	0.53542483
692.615	0.53312544
692.807	0.53101932
692.999	0.52871704
693.192	0.52649317
693.384	0.52444706
693.576	0.52228904
693.768	0.52010031
693.961	0.51792205
694.153	0.51572866
694.345	0.51347286
694.537	0.51118681
694.729	0.5089294
694.921	0.5066777
695.113	0.50455411
695.305	0.50232254
695.498	0.5000956
695.69	0.49801949
695.882	0.49590036
696.074	0.49387611
696.266	0.49172538
696.458	0.48944679
696.65	0.48740211
696.842	0.48537072
697.033	0.48332457
697.225	0.48113004
697.417	0.47902236
697.609	0.47699049
697.801	0.47499012
697.993	0.47292544
698.185	0.47080402
698.376	0.46871692
698.568	0.46675534
698.76	0.46477515
698.952	0.46283443
699.144	0.46088859
699.335	0.45892538
699.527	0.45684073
699.719	0.45469712
699.91	0.45261679
700.102	0.45051693
700.294	0.4484828
700.485	0.44643499
700.677	0.44437347
700.869	0.44246981
701.06	0.44058032
701.252	0.43872271
701.443	0.43668968
701.635	0.43462404
701.826	0.43259882
702.018	0.43066641
702.209	0.42870833
702.401	0.42673362
702.592	0.4247197
702.784	0.42279623
702.975	0.42087162
703.166	0.41899758
703.358	0.41706179
703.549	0.41517927
703.741	0.41330237
703.932	0.41141559
704.123	0.40947695
704.315	0.40755509
704.506	0.40573613
704.697	0.40382856
704.888	0.4019512
705.08	0.40008064
705.271	0.39826732
705.462	0.39645127
705.653	0.39461907
705.844	0.39272794
706.035	0.39088079
706.227	0.38909938
706.418	0.38722819
706.609	0.38549613
706.8	0.38379265
706.991	0.38207281
707.182	0.3803376
707.373	0.37853088
707.564	0.37677264
707.755	0.37507793
707.946	0.37328183
708.137	0.37145135
708.328	0.36973807
708.519	0.36801795
708.71	0.3662551
708.901	0.36443849
709.092	0.36273345
709.283	0.36102046
709.473	0.35924321
709.664	0.35750679
709.855	0.35579869
710.046	0.35428174
710.237	0.35271497
710.427	0.35093459
710.618	0.34921483
710.809	0.34759032
711	0.34599328
711.19	0.34428728
711.381	0.34258017
711.572	0.34084835
711.762	0.33935818
711.953	0.33771281
712.144	0.33604797
712.334	0.3343515
712.525	0.33286023
712.715	0.33122425
712.906	0.3296654
713.097	0.32795425
713.287	0.32642924
713.478	0.32485127
713.668	0.32327564
713.859	0.32160717
714.049	0.320137
714.239	0.31871063
714.43	0.31735569
714.62	0.31595782
714.811	0.31450324
715.001	0.31312074
715.191	0.31167011
715.382	0.31001074
715.572	0.30834909
715.762	0.30661376
715.953	0.30490516
716.143	0.30324754
716.333	0.30152233
716.523	0.29988383
716.714	0.29842541
716.904	0.29687187
717.094	0.2955017
717.284	0.29413422
717.474	0.29278189
717.664	0.29158041
717.855	0.29020571
718.045	0.28883611
718.235	0.28750563
718.425	0.28611928
718.615	0.28468493
718.805	0.28323268
718.995	0.28173989
719.185	0.28045559
719.375	0.27913174
719.565	0.27776353
719.755	0.27641082
719.945	0.27513596
720.135	0.27394587
720.325	0.27269615
720.515	0.27138665
720.704	0.27003156
720.894	0.26873487
721.084	0.26731675
721.274	0.26587001
721.464	0.26438509
721.654	0.26303713
721.843	0.26165093
722.033	0.26035568
722.223	0.25909781
722.413	0.25791698
722.602	0.25667646
722.792	0.25546006
722.982	0.25414572
723.171	0.25291594
723.361	0.2516402
723.55	0.25036083
723.74	0.24910029
723.93	0.24791067
724.119	0.24675585
724.309	0.24553431
724.498	0.24428055
724.688	0.24304468
724.877	0.24184066
725.067	0.24062442
725.256	0.23935915
725.446	0.23807795
725.635	0.23684971
725.825	0.23561915
726.014	0.2343586
726.203	0.23313616
726.393	0.23186024
726.582	0.23051355
726.771	0.22927059
726.961	0.22802688
727.15	0.22677781
727.339	0.22562791
727.529	0.2244808
727.718	0.22329513
727.907	0.22226854
728.096	0.22116891
728.286	0.22016191
728.475	0.21918501
728.664	0.2181247
728.853	0.21713369
729.042	0.21606759
729.231	0.2148745
729.42	0.21365555
729.609	0.21246013
729.799	0.21118604
729.988	0.21005331
730.177	0.20871762
730.366	0.2075086
730.555	0.20633252
730.744	0.20516345
730.933	0.2039805
731.122	0.2028737
731.31	0.20173576
731.499	0.20068096
731.688	0.19968598
731.877	0.19879494
732.066	0.19798401
732.255	0.19713601
732.444	0.19621029
732.632	0.1952666
732.821	0.19438493
733.01	0.19350746
733.199	0.19259415
733.388	0.19167225
733.576	0.19075509
733.765	0.18990728
733.954	0.18899798
734.142	0.18799434
734.331	0.1869344
734.52	0.18587573
734.708	0.18474798
734.897	0.18363218
735.086	0.18252968
735.274	0.1814412
735.463	0.18034775
735.651	0.17934104
735.84	0.17834979
736.028	0.17737504
736.217	0.17647915
736.405	0.1755755
736.594	0.17467516
736.782	0.17380482
736.971	0.17287365
737.159	0.17195052
737.347	0.17102133
737.536	0.17002132
737.724	0.16888527
737.912	0.16776092
738.101	0.16666098
738.289	0.16562569
738.477	0.16467119
738.666	0.16368173
738.854	0.16280838
739.042	0.16209887
739.23	0.16139772
739.418	0.16070833
739.607	0.1599264
739.795	0.15913804
739.983	0.15842719
740.171	0.15767538
740.359	0.15687915
740.547	0.15603283
740.735	0.1551273
740.923	0.15437063
741.112	0.15359625
741.3	0.15279627
741.488	0.15188874
741.676	0.15098084
741.864	0.15019442
742.052	0.14943742
742.239	0.14856637
742.427	0.14757244
742.615	0.14661179
742.803	0.14574936
742.991	0.14496961
743.179	0.1441376
743.367	0.14340092
743.555	0.14279697
743.742	0.14233608
743.93	0.14183743
744.118	0.14120071
744.306	0.14049697
744.494	0.13975504
744.681	0.13901148
744.869	0.13820019
745.057	0.13731997
745.244	0.13647089
745.432	0.13573758
745.62	0.13500812
745.807	0.13434251
745.995	0.1335994
746.182	0.13287298
746.37	0.1321574
746.558	0.13143094
746.745	0.13067725
746.933	0.12995589
747.12	0.12931694
747.308	0.12877165
747.495	0.12815588
747.683	0.12754309
747.87	0.12687976
748.057	0.12623095
748.245	0.12555846
748.432	0.12479773
748.62	0.12393817
748.807	0.12315432
748.994	0.12244846
749.182	0.12182282
749.369	0.12118149
749.556	0.12047919
749.743	0.11978454
749.931	0.11918674
750.118	0.11862436
750.305	0.11800461
750.492	0.11744976
750.68	0.11694271
750.867	0.11653148
751.054	0.1160796
751.241	0.11566713
751.428	0.11521164
751.615	0.11477066
751.802	0.11428635
751.989	0.11374142
752.176	0.11324296
752.363	0.11280009
752.55	0.11225432
752.737	0.11161549
752.924	0.11084811
753.111	0.110086
753.298	0.10936248
753.485	0.10859081
753.672	0.1078314
753.859	0.10709685
754.046	0.10644556
754.233	0.10598577
754.42	0.10551328
754.606	0.10497498
754.793	0.10454122
754.98	0.10405471
755.167	0.10349487
755.353	0.10295334
755.54	0.10228662
755.727	0.10161974
755.914	0.10098006
756.1	0.10033824
756.287	0.09975141
756.474	0.09916372
756.66	0.09854984
756.847	0.09791879
757.033	0.09730881
757.22	0.09675889
757.407	0.09613101
757.593	0.09548395
757.78	0.09487391
757.966	0.09435322
758.153	0.09387169
758.339	0.09340217
758.526	0.09292432
758.712	0.09244171
758.898	0.09208575
759.085	0.09178766
759.271	0.09141556
759.458	0.09111042
759.644	0.09086437
759.83	0.09058289
760.017	0.09030737
760.203	0.08988242
760.389	0.08939191
760.576	0.08889069
760.762	0.08834876
760.948	0.08761393
761.134	0.08693215
761.32	0.0862747
761.507	0.08577519
761.693	0.08531928
761.879	0.08482827
762.065	0.08439282
762.251	0.08402307
762.437	0.08361525
762.623	0.08317107
762.809	0.08266958
762.995	0.0821685
763.181	0.08177539
763.367	0.0814061
763.553	0.08102802
763.739	0.08070837
763.925	0.08036057
764.111	0.07997686
764.297	0.07959789
764.483	0.07918869
764.669	0.07873353
764.855	0.07824854
765.041	0.07779989
765.227	0.07726569
765.412	0.07671115
765.598	0.07606837
765.784	0.07554249
765.97	0.07510097
766.156	0.07476509
766.341	0.07438398
766.527	0.07409578
766.713	0.07383362
766.898	0.07369117
767.084	0.07345998
767.27	0.0731355
767.455	0.07284869
767.641	0.07247952
767.827	0.07213454
768.012	0.07184839
768.198	0.07159163
768.383	0.07131907
768.569	0.07108776
768.754	0.07080762
768.94	0.07062555
769.125	0.07046491
769.311	0.07016169
769.496	0.06980294
769.682	0.06948328
769.867	0.06908065
770.052	0.06864949
770.238	0.06817232
770.423	0.06767546
770.608	0.06732357
770.794	0.06690614
770.979	0.06644864
771.164	0.06608397
771.35	0.06569535
771.535	0.06529369
771.72	0.06483792
771.905	0.06435113
772.09	0.06397569
772.276	0.06358839
772.461	0.06323085
772.646	0.06290298
772.831	0.06253661
773.016	0.06233765
773.201	0.06212074
773.386	0.06190606
773.571	0.06165804
773.756	0.06125349
773.941	0.06087115
774.126	0.06063133
774.311	0.06030535
774.496	0.05997067
774.681	0.05960579
774.866	0.05929547
775.051	0.05922121
775.236	0.05922353
775.421	0.05918571
775.606	0.05910026
775.791	0.05891791
775.976	0.05874745
776.16	0.05853594
776.345	0.05821279
776.53	0.05774357
776.715	0.0572373
776.899	0.05677026
777.084	0.05641942
777.269	0.05603918
777.454	0.05569545
777.638	0.05531927
777.823	0.05507766
778.008	0.05480217
778.192	0.05453648
778.377	0.05429569
778.561	0.05408684
778.746	0.05384778
778.931	0.05369349
779.115	0.05332181
779.3	0.0530692
779.484	0.05280486
779.669	0.05265935
779.853	0.052484
780.037	0.05229903
780.222	0.05199581
780.406	0.05179023
780.591	0.05159989
780.775	0.05137637
780.959	0.05101608
781.144	0.05063257
781.328	0.0502892
781.512	0.04995669
781.697	0.04967054
781.881	0.04924572
782.065	0.04878095
782.249	0.04828226
782.434	0.0478777
782.618	0.04749538
782.802	0.04722801
782.986	0.0469554
783.17	0.04668997
783.354	0.0465221
783.539	0.04643501
783.723	0.0462387
783.907	0.04608487
784.091	0.045852
784.275	0.04563119
784.459	0.04544251
784.643	0.04527754
784.827	0.04505221
785.011	0.04487515
785.195	0.0445507
785.379	0.04422434
785.563	0.04389398
785.747	0.04364011
785.93	0.0433276
786.114	0.04303564
786.298	0.04277213
786.482	0.04262311
786.666	0.04250442
786.85	0.04241653
787.033	0.04228363
787.217	0.04224581
787.401	0.04224526
787.585	0.0422554
787.768	0.04222416
787.952	0.04221827
788.136	0.04214094
788.319	0.04203732
788.503	0.04186169
788.687	0.04170513
788.87	0.04152179
789.054	0.0413419
789.237	0.0411848
789.421	0.04100555
789.605	0.04082115
789.788	0.04066389
789.972	0.04047345
790.155	0.04029603
790.338	0.04014416
790.522	0.03992601
790.705	0.03978323
790.889	0.03959774
791.072	0.03944721
791.256	0.03922849
791.439	0.03899188
791.622	0.038695
791.806	0.0384334
791.989	0.03818206
792.172	0.03799751
792.355	0.03768532
792.539	0.03743493
792.722	0.03716641
792.905	0.03685461
793.088	0.03646078
793.271	0.03615857
793.455	0.0358191
793.638	0.03562888
793.821	0.03535715
794.004	0.03509864
794.187	0.0349662
794.37	0.03488962
794.553	0.03476949
794.736	0.03464634
794.919	0.03444299
795.102	0.03446806
795.285	0.03453212
795.468	0.0345902
795.651	0.03472572
795.834	0.03489964
796.017	0.0351337
796.2	0.03531277
796.383	0.03537734
796.566	0.03538275
796.749	0.03536572
796.931	0.03533814
797.114	0.03513717
797.297	0.03486993
797.48	0.03457654
797.663	0.03420247
797.845	0.03386354
798.028	0.03353836
798.211	0.03319892
798.393	0.03295521
798.576	0.03271172
798.759	0.03252553
798.941	0.03237449
799.124	0.03218556
799.307	0.03195015
799.489	0.0316949
799.672	0.03139069
799.854	0.031087
800.037	0.03074705
800.219	0.03040761
800.402	0.03005744
800.584	0.02976057
800.767	0.02947819
800.949	0.02922526
801.132	0.02908226
801.314	0.02902366
801.496	0.02890082
801.679	0.02881716
801.861	0.02872039
802.043	0.02860722
802.226	0.0284379
802.408	0.0283358
802.59	0.02826038
802.772	0.02828842
802.955	0.02838474
803.137	0.02840173
803.319	0.02837213
803.501	0.02837407
803.684	0.02824783
803.866	0.0280935
804.048	0.02795803
804.23	0.0277512
804.412	0.02763886
804.594	0.02760515
804.776	0.02760374
804.958	0.02762546
805.14	0.02756076
805.322	0.02743701
805.504	0.02729061
805.686	0.02717693
805.868	0.0269666
806.05	0.02679367
806.232	0.02669449
806.414	0.02674387
806.596	0.02686572
806.778	0.02696607
806.96	0.02698054
807.141	0.02704711
807.323	0.02712267
807.505	0.02705405
807.687	0.02686634
807.869	0.02654607
808.05	0.02622007
808.232	0.02589007
808.414	0.02553277
808.595	0.02501865
808.777	0.02463548
808.959	0.0243289
809.14	0.02415192
809.322	0.02413021
809.504	0.02415315
809.685	0.02424142
809.867	0.02437602
810.048	0.02441199
810.23	0.02442098
810.411	0.02426951
810.593	0.02413507
810.774	0.0240479
810.956	0.02388202
811.137	0.02384305
811.319	0.02380169
811.5	0.02374082
811.681	0.02381944
811.863	0.02382839
812.044	0.02373779
812.225	0.02366258
812.407	0.02340726
812.588	0.02315616
812.769	0.02290067
812.951	0.02262502
813.132	0.02240066
813.313	0.02221033
813.494	0.02206493
813.675	0.02200286
813.857	0.02204042
814.038	0.02212131
814.219	0.02217445
814.4	0.02210775
814.581	0.02205558
814.762	0.02199287
814.943	0.02190141
815.124	0.02168178
815.305	0.02146938
815.486	0.0212407
815.667	0.02099101
815.848	0.02073295
816.029	0.02046277
816.21	0.02034147
816.391	0.02031907
816.572	0.02018023
816.753	0.0201576
816.934	0.0201534
817.115	0.02011599
817.295	0.02003085
817.476	0.01986173
817.657	0.01962915
817.838	0.01960598
818.019	0.01952858
818.199	0.01943488
818.38	0.019318
818.561	0.01936734
818.741	0.01939132
818.922	0.01951458
819.103	0.01956179
819.283	0.01959551
819.464	0.01980551
819.645	0.01999609
819.825	0.02006452
820.006	0.020153
820.186	0.02012974
820.367	0.02011807
820.547	0.02006476
820.728	0.01991709
820.908	0.01973557
821.089	0.01956404
821.269	0.01936406
821.45	0.01925036
821.63	0.01913017
821.81	0.01902489
821.991	0.01882467
822.171	0.01877635
822.351	0.01877732
822.532	0.01878404
822.712	0.01869164
822.892	0.01862526
823.072	0.01858229
823.253	0.01863077
823.433	0.01851519
823.613	0.01835562
823.793	0.01826452
823.973	0.0183106
824.154	0.0183086
824.334	0.01833693
824.514	0.0183666
824.694	0.01853
824.874	0.01866912
825.054	0.01875312
825.234	0.01870263
825.414	0.01858065
825.594	0.01839368
825.774	0.01808531
825.954	0.01779556
826.134	0.0175626
826.314	0.01730049
826.494	0.01707088
826.674	0.01688864
826.854	0.01674001
827.033	0.01668827
827.213	0.01659011
827.393	0.01651079
827.573	0.0164996
827.753	0.01650771
827.932	0.01658455
828.112	0.01668738
828.292	0.01673068
828.472	0.01664327
828.651	0.01658849
828.831	0.01650683
829.011	0.01645567
829.19	0.0162883
829.37	0.01609035
829.549	0.01593651
829.729	0.01590037
829.909	0.01579714
830.088	0.01566676
830.268	0.01557725
830.447	0.01549612
830.627	0.01551913
830.806	0.01559869
830.986	0.01563806
831.165	0.01556058
831.344	0.01545286
831.524	0.01515696
831.703	0.01496022
831.883	0.01469938
832.062	0.01439497
832.241	0.01427789
832.421	0.01418459
832.6	0.01420273
832.779	0.01427042
832.958	0.0143176
833.138	0.0142565
833.317	0.01418691
833.496	0.01403694
833.675	0.01391236
833.854	0.01379979
834.034	0.01371655
834.213	0.01357879
834.392	0.01355728
834.571	0.01348632
834.75	0.013426
834.929	0.01336851
835.108	0.01325005
835.287	0.0132079
835.466	0.01324592
835.645	0.01327196
835.824	0.01344115
836.003	0.01346544
836.182	0.01349669
836.361	0.0134373
836.54	0.01336855
836.719	0.01335155
836.897	0.01314158
837.076	0.01291733
837.255	0.01281399
837.434	0.01271981
837.613	0.0127397
837.791	0.0126523
837.97	0.0124871
838.149	0.012463
838.328	0.01230774
838.506	0.01214876
838.685	0.01204995
838.864	0.01194409
839.042	0.01201087
839.221	0.01210307
839.4	0.01209171
839.578	0.01220899
839.757	0.0123379
839.935	0.01232916
840.114	0.01225501
840.292	0.01203642
840.471	0.01177071
840.649	0.01163954
840.828	0.01152836
841.006	0.0113695
841.185	0.01142323
841.363	0.01145285
841.541	0.01151373
841.72	0.01161874
841.898	0.01174362
842.076	0.01186182
842.255	0.01200123
842.433	0.01210954
842.611	0.01219703
842.789	0.01226114
842.968	0.01232596
843.146	0.01230248
843.324	0.0122223
843.502	0.01214276
843.68	0.01194323
843.859	0.01184783
844.037	0.01167821
844.215	0.01145667
844.393	0.01134965
844.571	0.01112574
844.749	0.01082765
844.927	0.01064425
845.105	0.01042869
845.283	0.01031495
845.461	0.01021879
845.639	0.01004442
845.817	0.01004751
845.995	0.01006436
846.173	0.01017849
846.351	0.01013178
846.529	0.01002915
846.706	0.00998531
846.884	0.0100043
847.062	0.00998793
847.24	0.01002269
847.418	0.00999521
847.595	0.01012963
847.773	0.01031616
847.951	0.0103865
848.129	0.01025172
848.306	0.01014199
848.484	0.00993085
848.662	0.00963353
848.839	0.00934871
849.017	0.00899963
849.194	0.00867515
849.372	0.00861186
849.549	0.00849278
849.727	0.00845447
849.905	0.00838771
850.082	0.00841067
850.26	0.00849586
850.437	0.00862474
850.614	0.0086105
850.792	0.0085447
850.969	0.00847621
851.147	0.00842998
851.324	0.00833358
851.501	0.00829855
851.679	0.00823237
851.856	0.00821917
852.033	0.00839303
852.211	0.00861033
852.388	0.00885141
852.565	0.00901809
852.742	0.00923826
852.92	0.00935292
853.097	0.00942311
853.274	0.00933365
853.451	0.00929841
853.628	0.00925602
853.805	0.00916459
853.982	0.0089812
854.159	0.00883647
854.336	0.00867179
854.514	0.00871426
854.691	0.00875486
854.868	0.00877552
855.045	0.00902639
855.221	0.00919244
855.398	0.0093645
855.575	0.00947941
855.752	0.00950095
855.929	0.00950474
856.106	0.00945121
856.283	0.00928637
856.46	0.00915883
856.637	0.00912236
856.813	0.00918707
856.99	0.00926203
857.167	0.00913691
857.344	0.00910194
857.52	0.0089445
857.697	0.00878761
857.874	0.00855558
858.05	0.008493
858.227	0.00835822
858.404	0.00838313
858.58	0.00838063
858.757	0.00837919
858.933	0.00843579
859.11	0.00850979
859.287	0.00833884
859.463	0.00818612
859.64	0.00803481
859.816	0.00784021
859.993	0.00779854
860.169	0.00777803
860.345	0.00778142
860.522	0.00789825
860.698	0.00792837
860.875	0.00801293
861.051	0.0082585
861.227	0.00844099
861.404	0.00861958
861.58	0.00880741
861.756	0.00878325
861.932	0.00884134
862.109	0.00887597
862.285	0.00877348
862.461	0.00860085
862.637	0.00839818
862.813	0.00820897
862.99	0.00822803
863.166	0.00805489
863.342	0.00792118
863.518	0.00779096
863.694	0.00767522
863.87	0.00757346
864.046	0.00747729
864.222	0.0072382
864.398	0.00718428
864.574	0.00705667
864.75	0.00697381
864.926	0.00687085
865.102	0.00681701
865.278	0.00660709
865.454	0.00661372
865.63	0.0065348
865.805	0.00658171
865.981	0.00658706
866.157	0.00679451
866.333	0.00688771
866.509	0.00708087
866.684	0.00731611
866.86	0.00762061
867.036	0.00769221
867.212	0.00762606
867.387	0.00748301
867.563	0.00733805
867.739	0.0072449
867.914	0.00700464
868.09	0.00667705
868.265	0.00639126
868.441	0.00621629
868.617	0.00601202
868.792	0.00603727
868.968	0.00607122
869.143	0.00612736
869.319	0.00627892
869.494	0.00648794
869.67	0.00677809
869.845	0.00709909
870.02	0.00721266
870.196	0.00724124
870.371	0.00731075
870.546	0.007297
870.722	0.00743162
870.897	0.00752558
871.072	0.00744461
871.248	0.00733667
871.423	0.00733313
871.598	0.00718894
871.773	0.00712026
871.949	0.00696968
872.124	0.00677564
872.299	0.00671583
872.474	0.00661678
872.649	0.00653137
872.824	0.00645678
872.999	0.00640346
873.174	0.00629654
873.349	0.00614806
873.524	0.00602481
873.699	0.00591884
873.874	0.0057826
874.049	0.00578787
874.224	0.00570763
874.399	0.00559983
874.574	0.00560192
874.749	0.00555976
874.924	0.00563582
875.099	0.00572986
875.274	0.00581004
875.449	0.00594891
875.623	0.00595784
875.798	0.00578687
875.973	0.0056687
876.148	0.00554643
876.322	0.00532241
876.497	0.00520021
876.672	0.00501477
876.846	0.00500029
877.021	0.00505866
877.196	0.00515446
877.37	0.00534852
877.545	0.00551479
877.72	0.00546594
877.894	0.00550725
878.069	0.00549399
878.243	0.00545007
878.418	0.00517526
878.592	0.00490655
878.767	0.00467194
878.941	0.00445297
879.116	0.00440665
879.29	0.00443432
879.464	0.004471
879.639	0.004743
879.813	0.00482452
879.987	0.0050581
880.162	0.00532968
880.336	0.00540194
880.51	0.00541607
880.685	0.00559684
880.859	0.00562331
881.033	0.00571341
881.207	0.0056989
881.381	0.00573698
881.556	0.00569055
881.73	0.0057431
881.904	0.00583266
882.078	0.00598093
882.252	0.00606687
882.426	0.00609586
882.6	0.00592493
882.774	0.0058392
882.948	0.00571642
883.122	0.00551044
883.296	0.00525396
883.47	0.00511498
883.644	0.00494966
883.818	0.00503985
883.992	0.00517674
884.166	0.00522869
884.34	0.00521299
884.514	0.00523943
884.687	0.00513369
884.861	0.00510719
885.035	0.00492937
885.209	0.00460312
885.382	0.00432832
885.556	0.00416452
885.73	0.00406116
885.904	0.00401019
886.077	0.00401453
886.251	0.00409462
886.425	0.00417028
886.598	0.00432279
886.772	0.00443125
886.945	0.00446332
887.119	0.00463537
887.292	0.00473094
887.466	0.00492026
887.64	0.00524762
887.813	0.00544074
887.986	0.0055937
888.16	0.00579479
888.333	0.00591506
888.507	0.00600784
888.68	0.00593057
888.854	0.00575434
889.027	0.0056081
889.2	0.00553531
889.374	0.00537464
889.547	0.0051675
889.72	0.00505136
889.893	0.00498177
890.067	0.0049154
890.24	0.00477046
890.413	0.00461691
890.586	0.0045365
890.759	0.00457977
890.933	0.00453872
891.106	0.00457376
891.279	0.00453178
891.452	0.00459593
891.625	0.00470661
891.798	0.00480283
891.971	0.00476197
892.144	0.00486499
892.317	0.00503712
892.49	0.00521463
892.663	0.00529806
892.836	0.00530608
893.009	0.0053274
893.182	0.00538159
893.355	0.00541488
893.527	0.00538294
893.7	0.00535474
893.873	0.00540009
894.046	0.00539892
894.219	0.00535651
894.391	0.00544322
894.564	0.00544196
894.737	0.00536166
894.91	0.00539062
895.082	0.00539711
895.255	0.00537879
895.428	0.00539413
895.6	0.00521944
895.773	0.00478645
895.945	0.00453741
896.118	0.00431923
896.291	0.00412956
896.463	0.00397838
896.636	0.00393024
896.808	0.0038866
896.981	0.00409725
897.153	0.00419874
897.326	0.00414083
897.498	0.00411619
897.67	0.00400723
897.843	0.00374653
898.015	0.00357638
898.187	0.00341658
898.36	0.00321696
898.532	0.00335852
898.704	0.00338926
898.877	0.00342741
899.049	0.0035362
899.221	0.00357461
899.393	0.00361618
899.566	0.00372512
899.738	0.00345883
899.91	0.00332769
900.082	0.00324536
900.254	0.00314913
900.426	0.00310264
900.598	0.00319792
900.77	0.00320069
900.942	0.0033685
901.114	0.00346685
901.286	0.00363409
901.458	0.00377348
901.63	0.00385719
901.802	0.00381936
901.974	0.00377935
902.146	0.00378548
902.318	0.0037856
902.49	0.00374015
902.662	0.00384243
902.834	0.00395157
903.005	0.00402311
903.177	0.00419446
903.349	0.0041998
903.521	0.00424048
903.693	0.00421579
903.864	0.00410881
904.036	0.00406028
904.208	0.00409399
904.379	0.00395776
904.551	0.00393484
904.723	0.00380971
904.894	0.00376483
905.066	0.00377117
905.237	0.00364496
905.409	0.00350167
905.58	0.00333993
905.752	0.00310344
905.923	0.00298828
906.095	0.00285763
906.266	0.00257075
906.438	0.00232592
906.609	0.00211209
906.78	0.00200519
906.952	0.00196469
907.123	0.00183397
907.295	0.00196506
907.466	0.0022141
907.637	0.00250245
907.808	0.00268552
907.98	0.0029903
908.151	0.00314279
908.322	0.00346815
908.493	0.00346617
908.665	0.0035305
908.836	0.00350209
909.007	0.00359314
909.178	0.00365343
909.349	0.00386621
909.52	0.0038955
909.691	0.00397075
909.862	0.00394239
910.033	0.0039013
910.204	0.0038216
910.375	0.00353593
910.546	0.00333473
910.717	0.00311703
910.888	0.00295176
911.059	0.00277373
911.23	0.00272859
911.401	0.00264778
911.572	0.00267737
911.742	0.0026171
911.913	0.00254406
912.084	0.00253087
912.255	0.00267166
912.426	0.00281921
912.596	0.00285909
912.767	0.00287831
912.938	0.00296195
913.108	0.00298874
913.279	0.00299511
913.45	0.00287939
913.62	0.00259793
913.791	0.00234431
913.962	0.00216618
914.132	0.00193222
914.303	0.00186054
914.473	0.00180095
914.644	0.00178191
914.814	0.00196087
914.985	0.00224029
915.155	0.00242363
915.326	0.00261644
915.496	0.00276799
915.666	0.00284195
915.837	0.0028445
916.007	0.00277976
916.177	0.00245802
916.348	0.00225626
916.518	0.00209216
916.688	0.00190467
916.858	0.00190407
917.029	0.00193482
917.199	0.00192199
917.369	0.00222528
917.539	0.00238512
917.709	0.00250882
917.88	0.00272925
918.05	0.00282947
918.22	0.00279145
918.39	0.00269923
918.56	0.00255259
918.73	0.0023503
918.9	0.00232635
919.07	0.00239614
919.24	0.0024652
919.41	0.00255502
919.58	0.00278246
919.75	0.00297367
919.92	0.00321792
920.09	0.00325822
920.26	0.00323976
920.429	0.00313641
920.599	0.00311063
920.769	0.00301601
920.939	0.00300196
921.109	0.00309973
921.278	0.00319668
921.448	0.00323065
921.618	0.0032596
921.787	0.00338332
921.957	0.0035313
922.127	0.00362164
922.296	0.00361934
922.466	0.00362672
922.636	0.003659
922.805	0.00373322
922.975	0.00355662
923.144	0.00351498
923.314	0.00339473
923.483	0.00328895
923.653	0.00327392
923.822	0.00322372
923.992	0.00327208
924.161	0.00335708
924.331	0.00331069
924.5	0.00328625
924.669	0.00329407
924.839	0.00324962
925.008	0.00311337
925.177	0.00278089
925.347	0.00264051
925.516	0.00267114
925.685	0.00276115
925.854	0.00283709
926.023	0.00286099
926.193	0.00304367
926.362	0.00340936
926.531	0.0037979
926.7	0.00407658
926.869	0.00426582
927.038	0.00439017
927.207	0.00467133
927.376	0.00477894
927.545	0.00470139
927.715	0.00453882
927.884	0.00427972
928.052	0.00397927
928.221	0.00381571
928.39	0.00334699
928.559	0.00318729
928.728	0.00304689
928.897	0.00293056
929.066	0.00283169
929.235	0.00287897
929.404	0.00271906
929.572	0.00280501
929.741	0.00265803
929.91	0.00256017
930.079	0.00241767
930.247	0.00234344
930.416	0.00224485
930.585	0.00223293
930.753	0.00217272
930.922	0.00214929
931.091	0.00215915
931.259	0.00225981
931.428	0.0021842
931.596	0.00218149
931.765	0.00224398
931.934	0.00245143
932.102	0.00243776
932.27	0.00247938
932.439	0.00251247
932.607	0.00262688
932.776	0.00260048
932.944	0.00268647
933.113	0.00264491
933.281	0.00276863
933.449	0.0028934
933.618	0.00280991
933.786	0.00273691
933.954	0.00283054
934.123	0.00275101
934.291	0.00271796
934.459	0.00277428
934.627	0.0027003
934.795	0.00271103
934.964	0.00299803
935.132	0.0031696
935.3	0.00344569
935.468	0.00354077
935.636	0.00345145
935.804	0.00357249
935.972	0.003676
936.14	0.0036224
936.308	0.00364697
936.476	0.00364013
936.644	0.00393958
936.812	0.00432454
936.98	0.00500121
937.148	0.00564166
937.316	0.00613071
937.484	0.00649967
937.652	0.00723671
937.82	0.00753376
937.987	0.00778506
938.155	0.00764005
938.323	0.00801339
938.491	0.00827991
938.658	0.00899292
938.826	0.00912299
938.994	0.00983475
939.162	0.01057289
939.329	0.01099466
939.497	0.01146868
939.665	0.01223941
939.832	0.0125625
940	0.01300207
940.167	0.01375731
940.335	0.01444403
940.502	0.01532796
940.67	0.0157086
940.837	0.01668357
941.005	0.01690538
941.172	0.01726354
941.34	0.01700968
941.507	0.01750281
941.674	0.01796953
941.842	0.01891147
942.009	0.01885002
942.177	0.01995478
942.344	0.02120851
942.511	0.02156727
942.678	0.02192537
942.846	0.02234186
943.013	0.02244319
943.18	0.02272242
943.347	0.02254639
943.514	0.02256661
943.682	0.02332536
943.849	0.02343978
944.016	0.02391215
944.183	0.02404219
944.35	0.02424423
944.517	0.02459162
944.684	0.02445091
944.851	0.02412053
945.018	0.02449918
945.185	0.02433777
945.352	0.02422355
945.519	0.02404519
945.686	0.02383488
945.853	0.02391606
946.02	0.02362513
946.187	0.02331115
946.353	0.02316716
946.52	0.02313545
946.687	0.02324296
946.854	0.02317153
947.021	0.0226929
947.187	0.02241187
947.354	0.0223845
947.521	0.0223325
947.687	0.02138295
947.854	0.02061805
948.021	0.01995611
948.187	0.01952486
948.354	0.01952755
948.52	0.01852508
948.687	0.01746901
948.854	0.01738766
949.02	0.01727766
949.187	0.01742254
949.353	0.01745583
949.52	0.01700572
949.686	0.01681719
949.852	0.01703194
950.019	0.0167439
950.185	0.01684319
950.352	0.01545753
950.518	0.01468267
950.684	0.01384505
950.851	0.01373673
951.017	0.01341583
951.183	0.01309115
951.349	0.01234415
951.516	0.01241697
951.682	0.01239152
951.848	0.01289141
952.014	0.01221978
952.18	0.01191025
952.346	0.01149648
952.512	0.01132604
952.679	0.0111592
952.845	0.01070287
953.011	0.01012714
953.177	0.0101758
953.343	0.00957123
953.509	0.0096047
953.675	0.00930493
953.841	0.00902514
954.007	0.00922509
954.172	0.00901649
954.338	0.0085706
954.504	0.00858177
954.67	0.0079734
954.836	0.00760401
955.002	0.00734706
955.167	0.00676584
955.333	0.00636672
955.499	0.00606208
955.665	0.00558484
955.83	0.00553682
955.996	0.00532563
956.162	0.00507146
956.327	0.00475237
956.493	0.00446515
956.659	0.00447657
956.824	0.00393206
956.99	0.00342789
957.155	0.0030091
957.321	0.00275744
957.486	0.00270945
957.652	0.00251249
957.817	0.0023189
957.983	0.00244593
958.148	0.00278265
958.314	0.00310469
958.479	0.00327932
958.644	0.00292511
958.81	0.00319762
958.975	0.00324782
959.14	0.00362924
959.306	0.00348332
959.471	0.00360061
959.636	0.00375614
959.801	0.00432447
959.967	0.00425215
960.132	0.00456537
960.297	0.00448279
960.462	0.00458164
960.627	0.00430262
960.792	0.00404362
960.957	0.00364713
961.123	0.00342344
961.288	0.00303602
961.453	0.00302236
961.618	0.00291018
961.783	0.0027216
961.948	0.00278479
962.113	0.00269777
962.277	0.00286255
962.442	0.00265756
962.607	0.00257183
962.772	0.00228741
962.937	0.00243549
963.102	0.00230729
963.267	0.00217983
963.431	0.00213251
963.596	0.00219349
963.761	0.00185745
963.926	0.00199866
964.09	0.00190927
964.255	0.00194594
964.42	0.00208749
964.584	0.001881
964.749	0.00219727
964.914	0.00230324
965.078	0.00220757
965.243	0.00207128
965.407	0.00200506
965.572	0.0018672
965.736	0.00170749
965.901	0.00137282
966.065	0.00136601
966.23	0.00134332
966.394	0.00136561
966.559	0.00126582
966.723	0.00163112
966.887	0.00187149
967.052	0.00188546
967.216	0.00200936
967.38	0.0021786
967.545	0.00246521
967.709	0.00246989
967.873	0.00218401
968.037	0.0021732
968.202	0.00213747
968.366	0.00205333
968.53	0.00185123
968.694	0.00170312
968.858	0.00191541
969.022	0.00199103
969.187	0.00202967
969.351	0.00211025
969.515	0.00216488
969.679	0.00221648
969.843	0.00240964
970.007	0.00219661
970.171	0.00233923
970.335	0.00237883
970.499	0.00265245
970.662	0.00272494
970.826	0.00298488
970.99	0.00278407
971.154	0.00287264
971.318	0.0027665
971.482	0.00279129
971.645	0.00267757
971.809	0.00271242
971.973	0.00255084
972.137	0.00255442
972.3	0.00264972
972.464	0.00254114
972.628	0.00236681
972.791	0.00225741
972.955	0.00200017
973.119	0.00172695
973.282	0.00144647
973.446	0.00142881
973.609	0.00155496
973.773	0.00164318
973.936	0.00154121
974.1	0.00157038
974.263	0.00187991
974.427	0.00221294
974.59	0.00194814
974.754	0.00163981
974.917	0.00155032
975.08	0.00167361
975.244	0.00182941
975.407	0.00198254
975.57	0.00230229
975.734	0.00291266
975.897	0.0033582
976.06	0.00348194
976.223	0.00341748
976.387	0.00346274
976.55	0.00330286
976.713	0.00307507
976.876	0.0025272
977.039	0.00219717
977.202	0.00208599
977.365	0.00206582
977.528	0.00186199
977.692	0.00150245
977.855	0.00134113
978.018	0.00110727
978.181	0.00111459
978.344	0.00122648
978.506	0.00091626
978.669	0.00091916
978.832	0.00131809
978.995	0.00121067
979.158	0.0013473
979.321	0.0013326
979.484	0.00120449
979.646	0.00159
979.809	0.00162106
979.972	0.00166227
980.135	0.00200905
980.297	0.00269638
980.46	0.00294906
980.623	0.00331896
980.786	0.00340621
980.948	0.00361658
981.111	0.00383655
981.273	0.0036212
981.436	0.00325461
981.599	0.00339629
981.761	0.00302057
981.924	0.00317348
982.086	0.00355685
982.249	0.0036165
982.411	0.00384838
982.573	0.00422317
982.736	0.00448113
982.898	0.00524999
983.061	0.00533188
983.223	0.00546999
983.385	0.00585681
983.548	0.00626472
983.71	0.00686125
983.872	0.00692564
984.034	0.00683732
984.197	0.00721505
984.359	0.00720999
984.521	0.00697375
984.683	0.00678486
984.845	0.00629294
985.008	0.00602407
985.17	0.00602587
985.332	0.00561773
985.494	0.00538911
985.656	0.00527945
985.818	0.00534721
985.98	0.0051053
986.142	0.00487852
986.304	0.00493499
986.466	0.00487617
986.628	0.0048412
986.79	0.00476446
986.952	0.00459454
987.113	0.00438678
987.275	0.00450608
987.437	0.00413254
987.599	0.0042887
987.761	0.00432245
987.922	0.00418168
988.084	0.00435948
988.246	0.00496248
988.408	0.00510186
988.569	0.00553062
988.731	0.0055869
988.893	0.0058631
989.054	0.00633658
989.216	0.00635333
989.377	0.00620645
989.539	0.00640893
989.701	0.00604634
989.862	0.00587152
990.024	0.00520033
990.185	0.00510849
990.347	0.00484987
990.508	0.00478974
990.669	0.00454697
990.831	0.00477892
990.992	0.0049185
991.154	0.00508517
991.315	0.00527951
991.476	0.0052348
991.638	0.00548348
991.799	0.00556077
991.96	0.00547171
992.121	0.00537421
992.283	0.00550974
992.444	0.00489551
992.605	0.00501967
992.766	0.00434093
992.927	0.00442553
993.088	0.00431506
993.249	0.00422294
993.41	0.00457174
993.572	0.00520596
993.733	0.00509661
993.894	0.00501378
994.055	0.00499241
994.216	0.0050849
994.376	0.00512365
994.537	0.00506967
994.698	0.00431014
994.859	0.00437783
995.02	0.00481205
995.181	0.00464936
995.342	0.0048853
995.503	0.00499037
995.663	0.00487155
995.824	0.00531404
995.985	0.00548701
996.146	0.00602658
996.306	0.00638074
996.467	0.00628587
996.628	0.00641154
996.788	0.00677276
996.949	0.00726574
997.11	0.00760281
997.27	0.00755289
997.431	0.00823867
997.591	0.00875357
997.752	0.00920861
997.912	0.00947344
998.073	0.0091436
998.233	0.00918585
998.394	0.00938232
998.554	0.00920314
998.714	0.00924753
998.875	0.00931592
999.035	0.00893742
999.196	0.00943763
999.356	0.00923914
999.516	0.00887936
999.676	0.00848917
999.837	0.00861638
999.997	0.00823429
1000.157	0.00823707
1000.317	0.00776077
1000.477	0.00755018
1000.638	0.00750625
1000.798	0.0079099
1000.958	0.0073055
1001.118	0.00758182
1001.278	0.00753077
1001.438	0.00793893
1001.598	0.00801121
1001.758	0.0084174
1001.918	0.00781078
1002.078	0.00846254
1002.238	0.00835869
1002.398	0.00871088
1002.558	0.00898808
1002.718	0.00920436
1002.878	0.00887731
1003.037	0.00926549
1003.197	0.00848857
1003.357	0.00863844
1003.517	0.0085687
1003.677	0.00750708
1003.836	0.00713114
1003.996	0.00695406
1004.156	0.00674133
1004.315	0.00709495
1004.475	0.00650114
1004.635	0.00579139
1004.794	0.00639936
1004.954	0.00701421
1005.114	0.00722099
1005.273	0.00651844
1005.433	0.00603181
1005.592	0.00616504
1005.752	0.0060864
1005.911	0.00597122
1006.071	0.00607182
1006.23	0.0057294
1006.389	0.00640367
1006.549	0.00628243
1006.708	0.00653841
1006.868	0.00666403
1007.027	0.00661081
1007.186	0.00606978
1007.345	0.00655488
1007.505	0.00711836
1007.664	0.0072255
1007.823	0.00719864
1007.982	0.0071188
1008.142	0.00727898
1008.301	0.0075096
1008.46	0.00695002
1008.619	0.00658226
1008.778	0.00757088
1008.937	0.00784076
1009.096	0.0081628
1009.255	0.00795074
1009.414	0.00805981
1009.573	0.00945102
1009.732	0.00989446
1009.891	0.00996328
1010.05	0.00965564
1010.209	0.01085007
1010.368	0.01176906
1010.527	0.01154238
1010.686	0.01071925
1010.845	0.01072266
1011.003	0.00981164
1011.162	0.01049626
1011.321	0.01054123
1011.48	0.01007036
1011.638	0.01097471
1011.797	0.01098396
1011.956	0.010719
1012.115	0.01151538
1012.273	0.01145817
1012.432	0.01075569
1012.59	0.01093495
1012.749	0.01090699
1012.908	0.01132932
1013.066	0.01124318
1013.225	0.01086062
1013.383	0.0107794
1013.542	0.01117097
1013.7	0.01059653
1013.859	0.00987277
1014.017	0.00961068
1014.175	0.01009144
1014.334	0.01006598
1014.492	0.01007835
1014.65	0.00985478
1014.809	0.01058506
1014.967	0.01137021
1015.125	0.01173541
1015.284	0.01137272
1015.442	0.01254895
1015.6	0.01360596
1015.758	0.01362902
1015.916	0.01363177
1016.075	0.01343243
1016.233	0.01331037
1016.391	0.01337398
1016.549	0.0132967
1016.707	0.0127282
1016.865	0.01347133
1017.023	0.01338818
1017.181	0.01279023
1017.339	0.01339971
1017.497	0.01386715
1017.655	0.0131756
1017.813	0.01300355
1017.971	0.01245774
1018.129	0.01233285
1018.286	0.01391312
1018.444	0.01390834
1018.602	0.01462167
1018.76	0.01491533
1018.918	0.01521451
1019.075	0.01624042
1019.233	0.01644188
1019.391	0.01557921
1019.549	0.01405781
1019.706	0.0151645
1019.864	0.01574415
1020.022	0.01532454
1020.179	0.01556192
1020.337	0.01612694
1020.494	0.01685479
1020.652	0.01830453
1020.809	0.01692597
1020.967	0.01727356
1021.124	0.01786517
1021.282	0.0181891
1021.439	0.01901162
1021.597	0.01948261
1021.754	0.01916917
1021.911	0.01938582
1022.069	0.02036328
1022.226	0.02101622
1022.384	0.01921964
1022.541	0.01827103
1022.698	0.01882103
1022.855	0.02017151
1023.013	0.02007578
1023.17	0.01930991
1023.327	0.01773126
1023.484	0.01995614
1023.641	0.02038054
1023.798	0.02144539
1023.956	0.02130178
1024.113	0.02231241
1024.27	0.02388765
1024.427	0.02526686
1024.584	0.02481623
1024.741	0.02578124
1024.898	0.02505994
1025.055	0.02570024
1025.212	0.02552962
1025.369	0.02140976
1025.525	0.02177008
1025.682	0.02099248
1025.839	0.02070476
1025.996	0.02007293
1026.153	0.02031556
1026.31	0.01996438
1026.466	0.02354524
1026.623	0.02460143
1026.78	0.02459683
1026.937	0.02535677
1027.093	0.02616378
1027.25	0.02484718
1027.407	0.02593053
1027.563	0.02448672
1027.72	0.02504213
1027.876	0.02727268
1028.033	0.02768802
1028.19	0.02706472
1028.346	0.02786482
1028.503	0.02766903
1028.659	0.03081348
1028.816	0.02890789
1028.972	0.02832451
1029.128	0.02861672
1029.285	0.03034003
1029.441	0.03068789
1029.598	0.03135186
1029.754	0.03058565
1029.91	0.03361093
1030.067	0.03311133
1030.223	0.03138427
1030.379	0.03091362
1030.535	0.03181477
1030.691	0.03088719
1030.848	0.02996555
1031.004	0.02757739
1031.16	0.02912709
1031.316	0.03386203
1031.472	0.03387155
1031.628	0.03284581
1031.784	0.03453979
1031.94	0.03649622
1032.096	0.03581433
1032.252	0.03467917
1032.408	0.03473648
1032.564	0.03647967
1032.72	0.04019705
1032.876	0.03757814
1033.032	0.03541487
1033.188	0.03695561
1033.344	0.03827017
1033.5	0.03594063
1033.655	0.03442993
1033.811	0.03104297
1033.967	0.03371394
